Source	Mo
Tension (kV)	40
Current (uA)	500
-0.135	0.000
-0.132	0.000
-0.129	0.000
-0.126	0.000
-0.122	0.000
-0.119	0.000
-0.116	0.000
-0.113	0.000
-0.110	0.000
-0.106	0.000
-0.103	0.000
-0.100	0.000
-0.097	0.000
-0.093	0.000
-0.090	0.000
-0.087	0.000
-0.084	0.000
-0.081	0.000
-0.077	0.000
-0.074	0.000
-0.071	0.000
-0.068	0.000
-0.065	0.000
-0.061	0.000
-0.058	0.000
-0.055	0.000
-0.052	0.000
-0.049	0.000
-0.045	0.000
-0.042	0.000
-0.039	0.000
-0.036	0.000
-0.032	0.000
-0.029	0.000
-0.026	0.000
-0.023	0.000
-0.020	0.000
-0.016	0.000
-0.013	0.000
-0.010	0.000
-0.007	0.000
-0.004	0.000
-0.000	0.000
0.003	0.000
0.006	0.000
0.009	0.000
0.012	0.000
0.016	0.000
0.019	0.000
0.022	0.000
0.025	0.000
0.029	0.000
0.032	0.000
0.035	0.000
0.038	0.000
0.041	0.000
0.045	0.000
0.048	0.000
0.051	0.000
0.054	0.000
0.057	0.000
0.061	0.000
0.064	0.000
0.067	0.000
0.070	0.000
0.073	0.000
0.077	0.000
0.080	0.000
0.083	0.000
0.086	0.000
0.090	0.000
0.093	0.000
0.096	0.000
0.099	0.000
0.102	0.000
0.106	0.000
0.109	0.000
0.112	0.000
0.115	0.000
0.118	0.000
0.122	0.000
0.125	0.000
0.128	0.000
0.131	0.000
0.135	0.000
0.138	0.000
0.141	0.000
0.144	0.000
0.147	0.000
0.151	0.000
0.154	0.000
0.157	0.000
0.160	0.000
0.163	0.000
0.167	0.000
0.170	0.000
0.173	0.000
0.176	0.000
0.179	0.000
0.183	0.000
0.186	0.000
0.189	0.000
0.192	0.000
0.196	0.000
0.199	0.000
0.202	0.000
0.205	0.000
0.208	0.000
0.212	0.000
0.215	0.000
0.218	0.000
0.221	0.000
0.224	0.000
0.228	0.000
0.231	0.000
0.234	0.000
0.237	0.000
0.240	0.000
0.244	0.000
0.247	0.000
0.250	0.000
0.253	0.000
0.257	0.000
0.260	0.000
0.263	0.000
0.266	0.000
0.269	0.000
0.273	0.000
0.276	0.000
0.279	0.000
0.282	0.000
0.285	0.000
0.289	0.000
0.292	0.000
0.295	0.000
0.298	0.000
0.301	0.000
0.305	0.000
0.308	0.000
0.311	0.000
0.314	0.000
0.318	0.000
0.321	0.000
0.324	0.000
0.327	0.000
0.330	0.000
0.334	0.000
0.337	0.000
0.340	0.000
0.343	0.000
0.346	0.000
0.350	0.000
0.353	0.000
0.356	0.000
0.359	0.000
0.362	0.000
0.366	0.000
0.369	0.000
0.372	0.000
0.375	0.000
0.379	0.000
0.382	0.000
0.385	0.000
0.388	0.000
0.391	0.000
0.395	0.000
0.398	0.000
0.401	0.000
0.404	0.000
0.407	0.000
0.411	0.000
0.414	0.000
0.417	0.000
0.420	0.000
0.423	0.000
0.427	0.000
0.430	0.000
0.433	0.000
0.436	0.000
0.440	0.000
0.443	0.000
0.446	0.000
0.449	0.000
0.452	0.000
0.456	0.000
0.459	0.000
0.462	0.000
0.465	0.000
0.468	0.000
0.472	0.000
0.475	1.000
0.478	0.000
0.481	0.000
0.485	0.000
0.488	9.000
0.491	6.000
0.494	11.000
0.497	7.000
0.501	19.000
0.504	23.000
0.507	34.000
0.510	26.000
0.513	52.000
0.517	44.000
0.520	81.000
0.523	63.000
0.526	55.000
0.529	77.000
0.533	66.000
0.536	86.000
0.539	80.000
0.542	78.000
0.546	65.000
0.549	59.000
0.552	69.000
0.555	76.000
0.558	50.000
0.562	67.000
0.565	47.000
0.568	32.000
0.571	46.000
0.574	45.000
0.578	44.000
0.581	42.000
0.584	47.000
0.587	57.000
0.590	46.000
0.594	46.000
0.597	51.000
0.600	57.000
0.603	58.000
0.607	55.000
0.610	62.000
0.613	69.000
0.616	61.000
0.619	71.000
0.623	64.000
0.626	74.000
0.629	67.000
0.632	59.000
0.635	68.000
0.639	59.000
0.642	43.000
0.645	59.000
0.648	59.000
0.651	55.000
0.655	30.000
0.658	51.000
0.661	40.000
0.664	49.000
0.668	56.000
0.671	48.000
0.674	36.000
0.677	40.000
0.680	43.000
0.684	37.000
0.687	39.000
0.690	45.000
0.693	47.000
0.696	63.000
0.700	50.000
0.703	46.000
0.706	45.000
0.709	47.000
0.712	57.000
0.716	69.000
0.719	61.000
0.722	70.000
0.725	60.000
0.729	56.000
0.732	61.000
0.735	57.000
0.738	56.000
0.741	64.000
0.745	59.000
0.748	47.000
0.751	55.000
0.754	64.000
0.757	53.000
0.761	43.000
0.764	50.000
0.767	57.000
0.770	56.000
0.773	42.000
0.777	51.000
0.780	53.000
0.783	53.000
0.786	45.000
0.790	54.000
0.793	48.000
0.796	59.000
0.799	52.000
0.802	48.000
0.806	36.000
0.809	56.000
0.812	49.000
0.815	50.000
0.818	60.000
0.822	40.000
0.825	56.000
0.828	58.000
0.831	47.000
0.835	47.000
0.838	65.000
0.841	49.000
0.844	42.000
0.847	54.000
0.851	53.000
0.854	48.000
0.857	63.000
0.860	63.000
0.863	41.000
0.867	65.000
0.870	55.000
0.873	58.000
0.876	49.000
0.879	57.000
0.883	49.000
0.886	58.000
0.889	51.000
0.892	53.000
0.896	56.000
0.899	46.000
0.902	56.000
0.905	57.000
0.908	50.000
0.912	62.000
0.915	53.000
0.918	42.000
0.921	49.000
0.924	36.000
0.928	47.000
0.931	53.000
0.934	47.000
0.937	53.000
0.940	45.000
0.944	46.000
0.947	71.000
0.950	48.000
0.953	59.000
0.957	48.000
0.960	58.000
0.963	48.000
0.966	57.000
0.969	64.000
0.973	54.000
0.976	54.000
0.979	54.000
0.982	41.000
0.985	39.000
0.989	51.000
0.992	40.000
0.995	43.000
0.998	56.000
1.001	53.000
1.005	56.000
1.008	53.000
1.011	51.000
1.014	42.000
1.018	36.000
1.021	45.000
1.024	68.000
1.027	65.000
1.030	66.000
1.034	56.000
1.037	41.000
1.040	51.000
1.043	43.000
1.046	47.000
1.050	44.000
1.053	47.000
1.056	49.000
1.059	39.000
1.062	49.000
1.066	52.000
1.069	56.000
1.072	39.000
1.075	46.000
1.079	45.000
1.082	48.000
1.085	58.000
1.088	61.000
1.091	38.000
1.095	46.000
1.098	44.000
1.101	54.000
1.104	46.000
1.107	48.000
1.111	50.000
1.114	59.000
1.117	51.000
1.120	37.000
1.123	42.000
1.127	46.000
1.130	58.000
1.133	40.000
1.136	51.000
1.140	34.000
1.143	50.000
1.146	43.000
1.149	43.000
1.152	53.000
1.156	37.000
1.159	51.000
1.162	45.000
1.165	36.000
1.168	55.000
1.172	38.000
1.175	47.000
1.178	37.000
1.181	43.000
1.185	40.000
1.188	44.000
1.191	54.000
1.194	35.000
1.197	48.000
1.201	42.000
1.204	48.000
1.207	49.000
1.210	46.000
1.213	55.000
1.217	46.000
1.220	42.000
1.223	51.000
1.226	43.000
1.229	45.000
1.233	37.000
1.236	49.000
1.239	31.000
1.242	37.000
1.246	35.000
1.249	42.000
1.252	38.000
1.255	27.000
1.258	40.000
1.262	42.000
1.265	40.000
1.268	48.000
1.271	33.000
1.274	30.000
1.278	48.000
1.281	28.000
1.284	41.000
1.287	43.000
1.290	31.000
1.294	47.000
1.297	49.000
1.300	41.000
1.303	40.000
1.307	29.000
1.310	36.000
1.313	35.000
1.316	39.000
1.319	44.000
1.323	45.000
1.326	27.000
1.329	42.000
1.332	41.000
1.335	41.000
1.339	44.000
1.342	37.000
1.345	45.000
1.348	35.000
1.351	34.000
1.355	33.000
1.358	35.000
1.361	35.000
1.364	27.000
1.368	34.000
1.371	21.000
1.374	39.000
1.377	28.000
1.380	33.000
1.384	34.000
1.387	26.000
1.390	33.000
1.393	44.000
1.396	37.000
1.400	32.000
1.403	37.000
1.406	28.000
1.409	31.000
1.412	42.000
1.416	29.000
1.419	40.000
1.422	38.000
1.425	26.000
1.429	28.000
1.432	30.000
1.435	19.000
1.438	24.000
1.441	29.000
1.445	32.000
1.448	27.000
1.451	22.000
1.454	30.000
1.457	31.000
1.461	36.000
1.464	35.000
1.467	30.000
1.470	17.000
1.473	25.000
1.477	28.000
1.480	31.000
1.483	35.000
1.486	26.000
1.490	29.000
1.493	25.000
1.496	28.000
1.499	34.000
1.502	25.000
1.506	21.000
1.509	39.000
1.512	27.000
1.515	28.000
1.518	24.000
1.522	26.000
1.525	31.000
1.528	29.000
1.531	29.000
1.534	33.000
1.538	25.000
1.541	26.000
1.544	31.000
1.547	25.000
1.551	34.000
1.554	19.000
1.557	22.000
1.560	26.000
1.563	27.000
1.567	19.000
1.570	30.000
1.573	24.000
1.576	27.000
1.579	21.000
1.583	22.000
1.586	28.000
1.589	32.000
1.592	23.000
1.596	16.000
1.599	26.000
1.602	25.000
1.605	19.000
1.608	13.000
1.612	24.000
1.615	25.000
1.618	22.000
1.621	34.000
1.624	26.000
1.628	21.000
1.631	18.000
1.634	27.000
1.637	21.000
1.640	29.000
1.644	15.000
1.647	19.000
1.650	26.000
1.653	19.000
1.657	22.000
1.660	19.000
1.663	24.000
1.666	29.000
1.669	17.000
1.673	15.000
1.676	25.000
1.679	29.000
1.682	19.000
1.685	28.000
1.689	29.000
1.692	30.000
1.695	16.000
1.698	31.000
1.701	26.000
1.705	28.000
1.708	25.000
1.711	24.000
1.714	22.000
1.718	28.000
1.721	33.000
1.724	35.000
1.727	31.000
1.730	25.000
1.734	18.000
1.737	35.000
1.740	17.000
1.743	24.000
1.746	15.000
1.750	21.000
1.753	20.000
1.756	31.000
1.759	27.000
1.762	30.000
1.766	25.000
1.769	20.000
1.772	24.000
1.775	26.000
1.779	32.000
1.782	25.000
1.785	20.000
1.788	20.000
1.791	28.000
1.795	18.000
1.798	18.000
1.801	17.000
1.804	26.000
1.807	19.000
1.811	18.000
1.814	19.000
1.817	15.000
1.820	20.000
1.823	17.000
1.827	18.000
1.830	15.000
1.833	12.000
1.836	12.000
1.840	20.000
1.843	10.000
1.846	14.000
1.849	17.000
1.852	15.000
1.856	24.000
1.859	18.000
1.862	9.000
1.865	16.000
1.868	10.000
1.872	14.000
1.875	9.000
1.878	16.000
1.881	16.000
1.884	9.000
1.888	15.000
1.891	13.000
1.894	15.000
1.897	16.000
1.901	16.000
1.904	20.000
1.907	15.000
1.910	14.000
1.913	9.000
1.917	10.000
1.920	11.000
1.923	14.000
1.926	18.000
1.929	17.000
1.933	15.000
1.936	16.000
1.939	8.000
1.942	20.000
1.946	14.000
1.949	16.000
1.952	15.000
1.955	14.000
1.958	21.000
1.962	10.000
1.965	15.000
1.968	13.000
1.971	13.000
1.974	13.000
1.978	7.000
1.981	9.000
1.984	13.000
1.987	12.000
1.990	14.000
1.994	15.000
1.997	12.000
2.000	9.000
2.003	12.000
2.007	26.000
2.010	14.000
2.013	8.000
2.016	16.000
2.019	10.000
2.023	11.000
2.026	20.000
2.029	11.000
2.032	12.000
2.035	13.000
2.039	7.000
2.042	12.000
2.045	10.000
2.048	15.000
2.051	12.000
2.055	11.000
2.058	13.000
2.061	11.000
2.064	7.000
2.068	14.000
2.071	13.000
2.074	11.000
2.077	10.000
2.080	14.000
2.084	11.000
2.087	10.000
2.090	10.000
2.093	12.000
2.096	19.000
2.100	11.000
2.103	11.000
2.106	12.000
2.109	10.000
2.112	13.000
2.116	11.000
2.119	14.000
2.122	12.000
2.125	14.000
2.129	9.000
2.132	10.000
2.135	8.000
2.138	10.000
2.141	9.000
2.145	14.000
2.148	9.000
2.151	9.000
2.154	7.000
2.157	8.000
2.161	11.000
2.164	9.000
2.167	12.000
2.170	6.000
2.173	10.000
2.177	6.000
2.180	9.000
2.183	11.000
2.186	8.000
2.190	7.000
2.193	7.000
2.196	9.000
2.199	6.000
2.202	12.000
2.206	7.000
2.209	9.000
2.212	6.000
2.215	7.000
2.218	11.000
2.222	19.000
2.225	5.000
2.228	8.000
2.231	7.000
2.234	8.000
2.238	12.000
2.241	9.000
2.244	4.000
2.247	7.000
2.251	7.000
2.254	13.000
2.257	8.000
2.260	8.000
2.263	6.000
2.267	9.000
2.270	6.000
2.273	10.000
2.276	6.000
2.279	9.000
2.283	10.000
2.286	5.000
2.289	7.000
2.292	3.000
2.296	6.000
2.299	4.000
2.302	5.000
2.305	11.000
2.308	5.000
2.312	7.000
2.315	3.000
2.318	3.000
2.321	10.000
2.324	9.000
2.328	8.000
2.331	8.000
2.334	5.000
2.337	11.000
2.340	6.000
2.344	7.000
2.347	8.000
2.350	3.000
2.353	6.000
2.357	12.000
2.360	9.000
2.363	10.000
2.366	7.000
2.369	10.000
2.373	11.000
2.376	7.000
2.379	5.000
2.382	9.000
2.385	12.000
2.389	8.000
2.392	8.000
2.395	8.000
2.398	6.000
2.401	11.000
2.405	9.000
2.408	8.000
2.411	5.000
2.414	6.000
2.418	10.000
2.421	8.000
2.424	3.000
2.427	5.000
2.430	8.000
2.434	9.000
2.437	5.000
2.440	7.000
2.443	3.000
2.446	6.000
2.450	10.000
2.453	7.000
2.456	6.000
2.459	7.000
2.462	11.000
2.466	4.000
2.469	1.000
2.472	4.000
2.475	3.000
2.479	7.000
2.482	3.000
2.485	9.000
2.488	9.000
2.491	3.000
2.495	7.000
2.498	7.000
2.501	5.000
2.504	3.000
2.507	3.000
2.511	8.000
2.514	6.000
2.517	5.000
2.520	7.000
2.523	4.000
2.527	7.000
2.530	3.000
2.533	11.000
2.536	8.000
2.540	5.000
2.543	9.000
2.546	10.000
2.549	7.000
2.552	7.000
2.556	7.000
2.559	6.000
2.562	11.000
2.565	7.000
2.568	6.000
2.572	2.000
2.575	4.000
2.578	5.000
2.581	3.000
2.584	1.000
2.588	4.000
2.591	3.000
2.594	3.000
2.597	5.000
2.601	7.000
2.604	3.000
2.607	5.000
2.610	8.000
2.613	3.000
2.617	9.000
2.620	5.000
2.623	6.000
2.626	7.000
2.629	11.000
2.633	9.000
2.636	4.000
2.639	8.000
2.642	3.000
2.646	8.000
2.649	4.000
2.652	4.000
2.655	10.000
2.658	3.000
2.662	9.000
2.665	1.000
2.668	6.000
2.671	6.000
2.674	5.000
2.678	7.000
2.681	10.000
2.684	3.000
2.687	3.000
2.690	6.000
2.694	10.000
2.697	7.000
2.700	8.000
2.703	8.000
2.707	3.000
2.710	3.000
2.713	4.000
2.716	4.000
2.719	6.000
2.723	5.000
2.726	6.000
2.729	6.000
2.732	4.000
2.735	6.000
2.739	6.000
2.742	4.000
2.745	4.000
2.748	4.000
2.751	5.000
2.755	5.000
2.758	9.000
2.761	4.000
2.764	9.000
2.768	5.000
2.771	11.000
2.774	4.000
2.777	1.000
2.780	3.000
2.784	5.000
2.787	5.000
2.790	6.000
2.793	4.000
2.796	9.000
2.800	4.000
2.803	3.000
2.806	3.000
2.809	9.000
2.812	4.000
2.816	4.000
2.819	9.000
2.822	5.000
2.825	4.000
2.829	6.000
2.832	7.000
2.835	6.000
2.838	3.000
2.841	4.000
2.845	4.000
2.848	6.000
2.851	4.000
2.854	1.000
2.857	3.000
2.861	7.000
2.864	9.000
2.867	1.000
2.870	8.000
2.873	9.000
2.877	5.000
2.880	4.000
2.883	6.000
2.886	4.000
2.890	4.000
2.893	7.000
2.896	1.000
2.899	4.000
2.902	4.000
2.906	4.000
2.909	7.000
2.912	4.000
2.915	6.000
2.918	3.000
2.922	4.000
2.925	8.000
2.928	3.000
2.931	3.000
2.934	7.000
2.938	4.000
2.941	7.000
2.944	5.000
2.947	13.000
2.951	5.000
2.954	4.000
2.957	7.000
2.960	6.000
2.963	3.000
2.967	0.000
2.970	4.000
2.973	3.000
2.976	3.000
2.979	4.000
2.983	2.000
2.986	4.000
2.989	8.000
2.992	5.000
2.996	4.000
2.999	7.000
3.002	4.000
3.005	4.000
3.008	5.000
3.012	4.000
3.015	5.000
3.018	6.000
3.021	5.000
3.024	6.000
3.028	6.000
3.031	3.000
3.034	5.000
3.037	1.000
3.040	4.000
3.044	1.000
3.047	4.000
3.050	1.000
3.053	5.000
3.057	1.000
3.060	5.000
3.063	6.000
3.066	10.000
3.069	3.000
3.073	7.000
3.076	6.000
3.079	10.000
3.082	9.000
3.085	4.000
3.089	3.000
3.092	6.000
3.095	3.000
3.098	4.000
3.101	5.000
3.105	2.000
3.108	4.000
3.111	10.000
3.114	4.000
3.118	7.000
3.121	3.000
3.124	4.000
3.127	0.000
3.130	5.000
3.134	5.000
3.137	3.000
3.140	2.000
3.143	6.000
3.146	4.000
3.150	3.000
3.153	8.000
3.156	6.000
3.159	3.000
3.162	4.000
3.166	5.000
3.169	4.000
3.172	6.000
3.175	0.000
3.179	5.000
3.182	5.000
3.185	6.000
3.188	3.000
3.191	4.000
3.195	4.000
3.198	7.000
3.201	4.000
3.204	6.000
3.207	3.000
3.211	2.000
3.214	2.000
3.217	2.000
3.220	3.000
3.223	2.000
3.227	4.000
3.230	3.000
3.233	9.000
3.236	6.000
3.240	4.000
3.243	6.000
3.246	2.000
3.249	5.000
3.252	6.000
3.256	5.000
3.259	4.000
3.262	7.000
3.265	7.000
3.268	6.000
3.272	1.000
3.275	4.000
3.278	2.000
3.281	3.000
3.284	1.000
3.288	1.000
3.291	5.000
3.294	2.000
3.297	2.000
3.301	10.000
3.304	3.000
3.307	3.000
3.310	7.000
3.313	5.000
3.317	2.000
3.320	2.000
3.323	5.000
3.326	2.000
3.329	8.000
3.333	2.000
3.336	3.000
3.339	5.000
3.342	6.000
3.346	3.000
3.349	4.000
3.352	4.000
3.355	7.000
3.358	6.000
3.362	3.000
3.365	4.000
3.368	5.000
3.371	5.000
3.374	4.000
3.378	1.000
3.381	6.000
3.384	5.000
3.387	2.000
3.390	3.000
3.394	3.000
3.397	6.000
3.400	4.000
3.403	4.000
3.407	5.000
3.410	5.000
3.413	5.000
3.416	4.000
3.419	9.000
3.423	4.000
3.426	4.000
3.429	5.000
3.432	1.000
3.435	5.000
3.439	5.000
3.442	2.000
3.445	5.000
3.448	7.000
3.451	4.000
3.455	7.000
3.458	3.000
3.461	7.000
3.464	1.000
3.468	2.000
3.471	1.000
3.474	5.000
3.477	2.000
3.480	5.000
3.484	5.000
3.487	3.000
3.490	5.000
3.493	5.000
3.496	3.000
3.500	1.000
3.503	1.000
3.506	6.000
3.509	3.000
3.512	5.000
3.516	5.000
3.519	6.000
3.522	6.000
3.525	5.000
3.529	3.000
3.532	2.000
3.535	1.000
3.538	3.000
3.541	11.000
3.545	5.000
3.548	2.000
3.551	2.000
3.554	4.000
3.557	2.000
3.561	2.000
3.564	4.000
3.567	3.000
3.570	2.000
3.573	6.000
3.577	0.000
3.580	3.000
3.583	2.000
3.586	5.000
3.590	3.000
3.593	5.000
3.596	3.000
3.599	2.000
3.602	8.000
3.606	2.000
3.609	1.000
3.612	6.000
3.615	3.000
3.618	1.000
3.622	3.000
3.625	3.000
3.628	6.000
3.631	1.000
3.634	3.000
3.638	6.000
3.641	9.000
3.644	1.000
3.647	4.000
3.651	7.000
3.654	6.000
3.657	5.000
3.660	0.000
3.663	0.000
3.667	3.000
3.670	2.000
3.673	1.000
3.676	2.000
3.679	4.000
3.683	6.000
3.686	5.000
3.689	2.000
3.692	3.000
3.696	2.000
3.699	5.000
3.702	3.000
3.705	1.000
3.708	6.000
3.712	3.000
3.715	6.000
3.718	4.000
3.721	4.000
3.724	4.000
3.728	1.000
3.731	1.000
3.734	3.000
3.737	6.000
3.740	4.000
3.744	3.000
3.747	2.000
3.750	2.000
3.753	3.000
3.757	2.000
3.760	5.000
3.763	3.000
3.766	2.000
3.769	4.000
3.773	2.000
3.776	4.000
3.779	4.000
3.782	1.000
3.785	7.000
3.789	4.000
3.792	4.000
3.795	5.000
3.798	6.000
3.801	4.000
3.805	4.000
3.808	4.000
3.811	1.000
3.814	1.000
3.818	4.000
3.821	2.000
3.824	4.000
3.827	3.000
3.830	6.000
3.834	2.000
3.837	2.000
3.840	1.000
3.843	1.000
3.846	2.000
3.850	3.000
3.853	3.000
3.856	0.000
3.859	4.000
3.862	2.000
3.866	0.000
3.869	0.000
3.872	5.000
3.875	5.000
3.879	2.000
3.882	6.000
3.885	2.000
3.888	4.000
3.891	2.000
3.895	3.000
3.898	7.000
3.901	2.000
3.904	3.000
3.907	3.000
3.911	2.000
3.914	3.000
3.917	3.000
3.920	0.000
3.923	2.000
3.927	2.000
3.930	4.000
3.933	3.000
3.936	3.000
3.940	6.000
3.943	1.000
3.946	1.000
3.949	4.000
3.952	5.000
3.956	5.000
3.959	2.000
3.962	0.000
3.965	1.000
3.968	0.000
3.972	3.000
3.975	4.000
3.978	1.000
3.981	2.000
3.984	3.000
3.988	3.000
3.991	4.000
3.994	6.000
3.997	3.000
4.001	3.000
4.004	4.000
4.007	3.000
4.010	6.000
4.013	2.000
4.017	8.000
4.020	4.000
4.023	1.000
4.026	7.000
4.029	3.000
4.033	1.000
4.036	3.000
4.039	2.000
4.042	3.000
4.046	0.000
4.049	2.000
4.052	4.000
4.055	3.000
4.058	4.000
4.062	4.000
4.065	0.000
4.068	5.000
4.071	0.000
4.074	3.000
4.078	2.000
4.081	1.000
4.084	2.000
4.087	3.000
4.090	2.000
4.094	3.000
4.097	2.000
4.100	2.000
4.103	5.000
4.107	4.000
4.110	3.000
4.113	3.000
4.116	5.000
4.119	1.000
4.123	2.000
4.126	3.000
4.129	2.000
4.132	1.000
4.135	0.000
4.139	1.000
4.142	2.000
4.145	4.000
4.148	4.000
4.151	1.000
4.155	6.000
4.158	2.000
4.161	1.000
4.164	4.000
4.168	2.000
4.171	2.000
4.174	4.000
4.177	6.000
4.180	2.000
4.184	3.000
4.187	1.000
4.190	1.000
4.193	1.000
4.196	3.000
4.200	4.000
4.203	3.000
4.206	0.000
4.209	6.000
4.212	1.000
4.216	3.000
4.219	3.000
4.222	2.000
4.225	5.000
4.229	2.000
4.232	3.000
4.235	2.000
4.238	0.000
4.241	4.000
4.245	1.000
4.248	4.000
4.251	3.000
4.254	3.000
4.257	2.000
4.261	1.000
4.264	6.000
4.267	5.000
4.270	0.000
4.273	3.000
4.277	5.000
4.280	3.000
4.283	2.000
4.286	1.000
4.290	2.000
4.293	3.000
4.296	2.000
4.299	2.000
4.302	1.000
4.306	3.000
4.309	3.000
4.312	1.000
4.315	2.000
4.318	5.000
4.322	6.000
4.325	2.000
4.328	3.000
4.331	2.000
4.334	3.000
4.338	2.000
4.341	6.000
4.344	3.000
4.347	3.000
4.351	0.000
4.354	2.000
4.357	3.000
4.360	0.000
4.363	1.000
4.367	1.000
4.370	1.000
4.373	6.000
4.376	2.000
4.379	1.000
4.383	5.000
4.386	5.000
4.389	7.000
4.392	5.000
4.396	3.000
4.399	2.000
4.402	5.000
4.405	2.000
4.408	3.000
4.412	2.000
4.415	6.000
4.418	1.000
4.421	1.000
4.424	1.000
4.428	2.000
4.431	2.000
4.434	0.000
4.437	5.000
4.440	4.000
4.444	2.000
4.447	4.000
4.450	3.000
4.453	3.000
4.457	4.000
4.460	2.000
4.463	5.000
4.466	2.000
4.469	4.000
4.473	4.000
4.476	2.000
4.479	2.000
4.482	2.000
4.485	3.000
4.489	6.000
4.492	4.000
4.495	2.000
4.498	4.000
4.501	1.000
4.505	3.000
4.508	3.000
4.511	2.000
4.514	4.000
4.518	1.000
4.521	5.000
4.524	2.000
4.527	0.000
4.530	2.000
4.534	3.000
4.537	2.000
4.540	2.000
4.543	0.000
4.546	4.000
4.550	2.000
4.553	3.000
4.556	7.000
4.559	3.000
4.562	0.000
4.566	4.000
4.569	2.000
4.572	3.000
4.575	6.000
4.579	2.000
4.582	3.000
4.585	3.000
4.588	1.000
4.591	3.000
4.595	2.000
4.598	0.000
4.601	2.000
4.604	3.000
4.607	2.000
4.611	3.000
4.614	3.000
4.617	3.000
4.620	5.000
4.623	2.000
4.627	3.000
4.630	0.000
4.633	3.000
4.636	6.000
4.640	2.000
4.643	3.000
4.646	1.000
4.649	2.000
4.652	4.000
4.656	3.000
4.659	4.000
4.662	3.000
4.665	4.000
4.668	4.000
4.672	5.000
4.675	2.000
4.678	3.000
4.681	3.000
4.684	2.000
4.688	4.000
4.691	0.000
4.694	5.000
4.697	2.000
4.701	3.000
4.704	2.000
4.707	1.000
4.710	2.000
4.713	4.000
4.717	2.000
4.720	0.000
4.723	1.000
4.726	3.000
4.729	2.000
4.733	0.000
4.736	2.000
4.739	6.000
4.742	2.000
4.745	6.000
4.749	1.000
4.752	1.000
4.755	2.000
4.758	6.000
4.762	3.000
4.765	3.000
4.768	3.000
4.771	2.000
4.774	2.000
4.778	2.000
4.781	1.000
4.784	1.000
4.787	2.000
4.790	1.000
4.794	5.000
4.797	3.000
4.800	4.000
4.803	3.000
4.807	1.000
4.810	3.000
4.813	1.000
4.816	1.000
4.819	1.000
4.823	1.000
4.826	1.000
4.829	2.000
4.832	2.000
4.835	1.000
4.839	3.000
4.842	1.000
4.845	2.000
4.848	2.000
4.851	2.000
4.855	1.000
4.858	2.000
4.861	0.000
4.864	3.000
4.868	5.000
4.871	4.000
4.874	0.000
4.877	0.000
4.880	3.000
4.884	0.000
4.887	1.000
4.890	1.000
4.893	4.000
4.896	3.000
4.900	1.000
4.903	4.000
4.906	3.000
4.909	0.000
4.912	4.000
4.916	2.000
4.919	2.000
4.922	2.000
4.925	3.000
4.929	1.000
4.932	1.000
4.935	2.000
4.938	6.000
4.941	1.000
4.945	3.000
4.948	7.000
4.951	4.000
4.954	3.000
4.957	3.000
4.961	3.000
4.964	1.000
4.967	4.000
4.970	0.000
4.973	4.000
4.977	2.000
4.980	4.000
4.983	4.000
4.986	0.000
4.990	2.000
4.993	3.000
4.996	0.000
4.999	2.000
5.002	1.000
5.006	3.000
5.009	1.000
5.012	4.000
5.015	3.000
5.018	1.000
5.022	0.000
5.025	5.000
5.028	4.000
5.031	0.000
5.034	3.000
5.038	1.000
5.041	2.000
5.044	0.000
5.047	5.000
5.051	2.000
5.054	3.000
5.057	2.000
5.060	4.000
5.063	2.000
5.067	3.000
5.070	3.000
5.073	2.000
5.076	1.000
5.079	2.000
5.083	2.000
5.086	5.000
5.089	8.000
5.092	2.000
5.095	4.000
5.099	3.000
5.102	2.000
5.105	1.000
5.108	1.000
5.112	0.000
5.115	2.000
5.118	1.000
5.121	1.000
5.124	2.000
5.128	2.000
5.131	3.000
5.134	1.000
5.137	1.000
5.140	3.000
5.144	2.000
5.147	5.000
5.150	2.000
5.153	4.000
5.157	2.000
5.160	4.000
5.163	3.000
5.166	0.000
5.169	3.000
5.173	3.000
5.176	3.000
5.179	2.000
5.182	4.000
5.185	0.000
5.189	4.000
5.192	2.000
5.195	0.000
5.198	2.000
5.201	3.000
5.205	2.000
5.208	2.000
5.211	1.000
5.214	2.000
5.218	3.000
5.221	1.000
5.224	2.000
5.227	2.000
5.230	1.000
5.234	1.000
5.237	1.000
5.240	1.000
5.243	4.000
5.246	2.000
5.250	3.000
5.253	3.000
5.256	5.000
5.259	5.000
5.262	5.000
5.266	3.000
5.269	5.000
5.272	6.000
5.275	1.000
5.279	5.000
5.282	7.000
5.285	3.000
5.288	4.000
5.291	6.000
5.295	6.000
5.298	7.000
5.301	3.000
5.304	4.000
5.307	2.000
5.311	4.000
5.314	3.000
5.317	3.000
5.320	5.000
5.323	8.000
5.327	6.000
5.330	5.000
5.333	1.000
5.336	9.000
5.340	5.000
5.343	2.000
5.346	7.000
5.349	4.000
5.352	4.000
5.356	1.000
5.359	5.000
5.362	2.000
5.365	6.000
5.368	2.000
5.372	8.000
5.375	8.000
5.378	2.000
5.381	3.000
5.384	5.000
5.388	4.000
5.391	4.000
5.394	5.000
5.397	7.000
5.401	8.000
5.404	3.000
5.407	6.000
5.410	3.000
5.413	2.000
5.417	5.000
5.420	3.000
5.423	5.000
5.426	7.000
5.429	4.000
5.433	6.000
5.436	4.000
5.439	4.000
5.442	3.000
5.445	3.000
5.449	3.000
5.452	2.000
5.455	6.000
5.458	3.000
5.462	3.000
5.465	3.000
5.468	0.000
5.471	3.000
5.474	0.000
5.478	2.000
5.481	3.000
5.484	0.000
5.487	1.000
5.490	5.000
5.494	3.000
5.497	5.000
5.500	1.000
5.503	1.000
5.507	3.000
5.510	3.000
5.513	1.000
5.516	0.000
5.519	6.000
5.523	2.000
5.526	1.000
5.529	2.000
5.532	1.000
5.535	3.000
5.539	0.000
5.542	2.000
5.545	5.000
5.548	0.000
5.551	1.000
5.555	2.000
5.558	2.000
5.561	2.000
5.564	2.000
5.568	1.000
5.571	0.000
5.574	1.000
5.577	2.000
5.580	2.000
5.584	1.000
5.587	1.000
5.590	2.000
5.593	2.000
5.596	1.000
5.600	1.000
5.603	3.000
5.606	3.000
5.609	1.000
5.612	1.000
5.616	2.000
5.619	1.000
5.622	5.000
5.625	3.000
5.629	4.000
5.632	1.000
5.635	4.000
5.638	0.000
5.641	0.000
5.645	3.000
5.648	0.000
5.651	5.000
5.654	3.000
5.657	2.000
5.661	0.000
5.664	4.000
5.667	3.000
5.670	1.000
5.673	3.000
5.677	5.000
5.680	2.000
5.683	3.000
5.686	3.000
5.690	1.000
5.693	0.000
5.696	3.000
5.699	1.000
5.702	2.000
5.706	4.000
5.709	3.000
5.712	6.000
5.715	1.000
5.718	4.000
5.722	2.000
5.725	1.000
5.728	3.000
5.731	5.000
5.734	6.000
5.738	1.000
5.741	2.000
5.744	0.000
5.747	2.000
5.751	2.000
5.754	1.000
5.757	4.000
5.760	6.000
5.763	1.000
5.767	2.000
5.770	4.000
5.773	2.000
5.776	1.000
5.779	1.000
5.783	2.000
5.786	4.000
5.789	1.000
5.792	2.000
5.795	2.000
5.799	2.000
5.802	4.000
5.805	2.000
5.808	3.000
5.812	5.000
5.815	8.000
5.818	5.000
5.821	5.000
5.824	1.000
5.828	0.000
5.831	4.000
5.834	4.000
5.837	4.000
5.840	4.000
5.844	3.000
5.847	2.000
5.850	2.000
5.853	4.000
5.857	1.000
5.860	3.000
5.863	4.000
5.866	1.000
5.869	3.000
5.873	2.000
5.876	1.000
5.879	2.000
5.882	2.000
5.885	2.000
5.889	1.000
5.892	1.000
5.895	5.000
5.898	6.000
5.901	3.000
5.905	0.000
5.908	1.000
5.911	0.000
5.914	2.000
5.918	2.000
5.921	4.000
5.924	5.000
5.927	3.000
5.930	1.000
5.934	6.000
5.937	2.000
5.940	5.000
5.943	1.000
5.946	1.000
5.950	2.000
5.953	3.000
5.956	3.000
5.959	2.000
5.962	4.000
5.966	1.000
5.969	0.000
5.972	0.000
5.975	1.000
5.979	2.000
5.982	4.000
5.985	3.000
5.988	2.000
5.991	4.000
5.995	3.000
5.998	1.000
6.001	1.000
6.004	0.000
6.007	3.000
6.011	2.000
6.014	2.000
6.017	4.000
6.020	5.000
6.023	4.000
6.027	2.000
6.030	1.000
6.033	2.000
6.036	3.000
6.040	3.000
6.043	2.000
6.046	0.000
6.049	2.000
6.052	0.000
6.056	1.000
6.059	2.000
6.062	4.000
6.065	2.000
6.068	4.000
6.072	2.000
6.075	3.000
6.078	4.000
6.081	3.000
6.084	0.000
6.088	1.000
6.091	3.000
6.094	3.000
6.097	2.000
6.101	2.000
6.104	5.000
6.107	0.000
6.110	1.000
6.113	1.000
6.117	2.000
6.120	1.000
6.123	1.000
6.126	3.000
6.129	2.000
6.133	2.000
6.136	3.000
6.139	2.000
6.142	5.000
6.145	3.000
6.149	3.000
6.152	3.000
6.155	3.000
6.158	3.000
6.162	3.000
6.165	3.000
6.168	3.000
6.171	5.000
6.174	0.000
6.178	2.000
6.181	3.000
6.184	3.000
6.187	4.000
6.190	3.000
6.194	6.000
6.197	1.000
6.200	2.000
6.203	4.000
6.207	3.000
6.210	2.000
6.213	8.000
6.216	10.000
6.219	4.000
6.223	5.000
6.226	4.000
6.229	5.000
6.232	2.000
6.235	8.000
6.239	8.000
6.242	3.000
6.245	7.000
6.248	3.000
6.251	3.000
6.255	5.000
6.258	10.000
6.261	12.000
6.264	5.000
6.268	4.000
6.271	8.000
6.274	11.000
6.277	12.000
6.280	6.000
6.284	10.000
6.287	7.000
6.290	6.000
6.293	12.000
6.296	10.000
6.300	13.000
6.303	6.000
6.306	10.000
6.309	7.000
6.312	7.000
6.316	10.000
6.319	6.000
6.322	14.000
6.325	12.000
6.329	15.000
6.332	8.000
6.335	14.000
6.338	7.000
6.341	10.000
6.345	7.000
6.348	13.000
6.351	13.000
6.354	8.000
6.357	15.000
6.361	10.000
6.364	17.000
6.367	11.000
6.370	12.000
6.373	6.000
6.377	9.000
6.380	11.000
6.383	13.000
6.386	9.000
6.390	10.000
6.393	6.000
6.396	7.000
6.399	5.000
6.402	4.000
6.406	9.000
6.409	5.000
6.412	9.000
6.415	7.000
6.418	4.000
6.422	6.000
6.425	2.000
6.428	6.000
6.431	4.000
6.434	5.000
6.438	3.000
6.441	6.000
6.444	2.000
6.447	3.000
6.451	3.000
6.454	2.000
6.457	4.000
6.460	3.000
6.463	4.000
6.467	3.000
6.470	6.000
6.473	4.000
6.476	3.000
6.479	2.000
6.483	3.000
6.486	5.000
6.489	0.000
6.492	1.000
6.495	3.000
6.499	1.000
6.502	1.000
6.505	2.000
6.508	0.000
6.512	2.000
6.515	4.000
6.518	2.000
6.521	2.000
6.524	2.000
6.528	4.000
6.531	3.000
6.534	3.000
6.537	1.000
6.540	4.000
6.544	3.000
6.547	17.000
6.550	3.000
6.553	1.000
6.557	4.000
6.560	3.000
6.563	2.000
6.566	0.000
6.569	5.000
6.573	3.000
6.576	3.000
6.579	0.000
6.582	0.000
6.585	6.000
6.589	4.000
6.592	2.000
6.595	2.000
6.598	3.000
6.601	2.000
6.605	0.000
6.608	4.000
6.611	2.000
6.614	2.000
6.618	2.000
6.621	1.000
6.624	1.000
6.627	3.000
6.630	2.000
6.634	2.000
6.637	1.000
6.640	0.000
6.643	2.000
6.646	3.000
6.650	2.000
6.653	3.000
6.656	2.000
6.659	2.000
6.662	2.000
6.666	1.000
6.669	4.000
6.672	1.000
6.675	2.000
6.679	0.000
6.682	2.000
6.685	1.000
6.688	1.000
6.691	0.000
6.695	1.000
6.698	3.000
6.701	3.000
6.704	5.000
6.707	3.000
6.711	3.000
6.714	2.000
6.717	6.000
6.720	3.000
6.723	2.000
6.727	3.000
6.730	1.000
6.733	1.000
6.736	4.000
6.740	2.000
6.743	1.000
6.746	0.000
6.749	2.000
6.752	2.000
6.756	1.000
6.759	1.000
6.762	3.000
6.765	4.000
6.768	3.000
6.772	2.000
6.775	2.000
6.778	2.000
6.781	2.000
6.784	1.000
6.788	3.000
6.791	1.000
6.794	1.000
6.797	2.000
6.801	4.000
6.804	3.000
6.807	1.000
6.810	4.000
6.813	3.000
6.817	2.000
6.820	4.000
6.823	2.000
6.826	2.000
6.829	1.000
6.833	3.000
6.836	2.000
6.839	1.000
6.842	2.000
6.845	4.000
6.849	2.000
6.852	1.000
6.855	1.000
6.858	3.000
6.862	0.000
6.865	1.000
6.868	0.000
6.871	1.000
6.874	2.000
6.878	3.000
6.881	0.000
6.884	0.000
6.887	4.000
6.890	2.000
6.894	3.000
6.897	2.000
6.900	2.000
6.903	2.000
6.907	4.000
6.910	2.000
6.913	7.000
6.916	3.000
6.919	6.000
6.923	4.000
6.926	2.000
6.929	2.000
6.932	2.000
6.935	0.000
6.939	6.000
6.942	3.000
6.945	1.000
6.948	2.000
6.951	3.000
6.955	3.000
6.958	4.000
6.961	1.000
6.964	2.000
6.968	6.000
6.971	5.000
6.974	0.000
6.977	2.000
6.980	4.000
6.984	8.000
6.987	4.000
6.990	4.000
6.993	3.000
6.996	6.000
7.000	3.000
7.003	2.000
7.006	4.000
7.009	5.000
7.012	1.000
7.016	6.000
7.019	6.000
7.022	6.000
7.025	2.000
7.029	4.000
7.032	3.000
7.035	1.000
7.038	3.000
7.041	2.000
7.045	3.000
7.048	6.000
7.051	1.000
7.054	2.000
7.057	7.000
7.061	3.000
7.064	3.000
7.067	0.000
7.070	1.000
7.073	5.000
7.077	0.000
7.080	3.000
7.083	3.000
7.086	4.000
7.090	1.000
7.093	2.000
7.096	4.000
7.099	2.000
7.102	3.000
7.106	2.000
7.109	4.000
7.112	4.000
7.115	2.000
7.118	3.000
7.122	2.000
7.125	2.000
7.128	4.000
7.131	0.000
7.134	0.000
7.138	5.000
7.141	2.000
7.144	6.000
7.147	2.000
7.151	1.000
7.154	5.000
7.157	1.000
7.160	1.000
7.163	1.000
7.167	2.000
7.170	5.000
7.173	3.000
7.176	1.000
7.179	2.000
7.183	1.000
7.186	1.000
7.189	0.000
7.192	3.000
7.195	3.000
7.199	2.000
7.202	4.000
7.205	2.000
7.208	0.000
7.212	0.000
7.215	4.000
7.218	1.000
7.221	3.000
7.224	1.000
7.228	3.000
7.231	3.000
7.234	2.000
7.237	3.000
7.240	3.000
7.244	2.000
7.247	4.000
7.250	2.000
7.253	2.000
7.257	2.000
7.260	2.000
7.263	1.000
7.266	3.000
7.269	2.000
7.273	3.000
7.276	4.000
7.279	4.000
7.282	1.000
7.285	5.000
7.289	2.000
7.292	1.000
7.295	7.000
7.298	1.000
7.301	4.000
7.305	2.000
7.308	3.000
7.311	3.000
7.314	7.000
7.318	1.000
7.321	4.000
7.324	3.000
7.327	6.000
7.330	0.000
7.334	3.000
7.337	3.000
7.340	6.000
7.343	2.000
7.346	2.000
7.350	1.000
7.353	3.000
7.356	3.000
7.359	2.000
7.362	5.000
7.366	2.000
7.369	2.000
7.372	2.000
7.375	4.000
7.379	2.000
7.382	3.000
7.385	3.000
7.388	1.000
7.391	3.000
7.395	2.000
7.398	1.000
7.401	1.000
7.404	5.000
7.407	1.000
7.411	1.000
7.414	2.000
7.417	3.000
7.420	3.000
7.423	3.000
7.427	3.000
7.430	2.000
7.433	3.000
7.436	2.000
7.440	2.000
7.443	2.000
7.446	6.000
7.449	0.000
7.452	3.000
7.456	3.000
7.459	3.000
7.462	4.000
7.465	5.000
7.468	0.000
7.472	4.000
7.475	1.000
7.478	2.000
7.481	4.000
7.484	0.000
7.488	1.000
7.491	3.000
7.494	2.000
7.497	7.000
7.501	3.000
7.504	3.000
7.507	0.000
7.510	1.000
7.513	3.000
7.517	0.000
7.520	3.000
7.523	3.000
7.526	0.000
7.529	2.000
7.533	3.000
7.536	1.000
7.539	1.000
7.542	2.000
7.545	4.000
7.549	0.000
7.552	2.000
7.555	0.000
7.558	1.000
7.562	7.000
7.565	2.000
7.568	1.000
7.571	2.000
7.574	2.000
7.578	5.000
7.581	2.000
7.584	2.000
7.587	1.000
7.590	0.000
7.594	3.000
7.597	4.000
7.600	2.000
7.603	3.000
7.607	3.000
7.610	2.000
7.613	1.000
7.616	2.000
7.619	2.000
7.623	1.000
7.626	2.000
7.629	0.000
7.632	3.000
7.635	2.000
7.639	2.000
7.642	0.000
7.645	2.000
7.648	0.000
7.651	5.000
7.655	2.000
7.658	5.000
7.661	1.000
7.664	2.000
7.668	5.000
7.671	3.000
7.674	2.000
7.677	4.000
7.680	2.000
7.684	2.000
7.687	4.000
7.690	2.000
7.693	3.000
7.696	3.000
7.700	3.000
7.703	2.000
7.706	1.000
7.709	0.000
7.712	3.000
7.716	4.000
7.719	3.000
7.722	3.000
7.725	3.000
7.729	3.000
7.732	0.000
7.735	3.000
7.738	1.000
7.741	2.000
7.745	3.000
7.748	2.000
7.751	5.000
7.754	1.000
7.757	0.000
7.761	5.000
7.764	2.000
7.767	5.000
7.770	1.000
7.773	3.000
7.777	3.000
7.780	0.000
7.783	1.000
7.786	5.000
7.790	4.000
7.793	3.000
7.796	1.000
7.799	0.000
7.802	2.000
7.806	4.000
7.809	3.000
7.812	2.000
7.815	1.000
7.818	4.000
7.822	3.000
7.825	3.000
7.828	6.000
7.831	2.000
7.834	2.000
7.838	0.000
7.841	1.000
7.844	2.000
7.847	7.000
7.851	2.000
7.854	4.000
7.857	2.000
7.860	2.000
7.863	3.000
7.867	4.000
7.870	6.000
7.873	2.000
7.876	4.000
7.879	3.000
7.883	3.000
7.886	6.000
7.889	7.000
7.892	3.000
7.895	3.000
7.899	4.000
7.902	6.000
7.905	5.000
7.908	3.000
7.912	7.000
7.915	12.000
7.918	2.000
7.921	10.000
7.924	2.000
7.928	7.000
7.931	3.000
7.934	2.000
7.937	6.000
7.940	5.000
7.944	7.000
7.947	2.000
7.950	3.000
7.953	3.000
7.957	8.000
7.960	8.000
7.963	4.000
7.966	6.000
7.969	3.000
7.973	4.000
7.976	5.000
7.979	5.000
7.982	3.000
7.985	2.000
7.989	4.000
7.992	3.000
7.995	2.000
7.998	4.000
8.001	8.000
8.005	9.000
8.008	0.000
8.011	3.000
8.014	9.000
8.018	6.000
8.021	7.000
8.024	9.000
8.027	3.000
8.030	2.000
8.034	2.000
8.037	4.000
8.040	3.000
8.043	2.000
8.046	2.000
8.050	3.000
8.053	4.000
8.056	4.000
8.059	2.000
8.062	4.000
8.066	3.000
8.069	1.000
8.072	3.000
8.075	3.000
8.079	6.000
8.082	2.000
8.085	3.000
8.088	7.000
8.091	3.000
8.095	2.000
8.098	4.000
8.101	3.000
8.104	1.000
8.107	6.000
8.111	1.000
8.114	1.000
8.117	1.000
8.120	7.000
8.123	1.000
8.127	3.000
8.130	0.000
8.133	1.000
8.136	4.000
8.140	4.000
8.143	2.000
8.146	3.000
8.149	4.000
8.152	0.000
8.156	3.000
8.159	2.000
8.162	3.000
8.165	2.000
8.168	4.000
8.172	3.000
8.175	3.000
8.178	4.000
8.181	2.000
8.184	3.000
8.188	2.000
8.191	1.000
8.194	2.000
8.197	1.000
8.201	4.000
8.204	0.000
8.207	4.000
8.210	1.000
8.213	3.000
8.217	2.000
8.220	2.000
8.223	3.000
8.226	6.000
8.229	5.000
8.233	5.000
8.236	6.000
8.239	4.000
8.242	1.000
8.245	4.000
8.249	2.000
8.252	1.000
8.255	1.000
8.258	3.000
8.262	0.000
8.265	3.000
8.268	7.000
8.271	0.000
8.274	2.000
8.278	6.000
8.281	1.000
8.284	3.000
8.287	2.000
8.290	4.000
8.294	3.000
8.297	3.000
8.300	2.000
8.303	3.000
8.306	3.000
8.310	1.000
8.313	3.000
8.316	4.000
8.319	2.000
8.323	1.000
8.326	2.000
8.329	1.000
8.332	1.000
8.335	4.000
8.339	1.000
8.342	1.000
8.345	2.000
8.348	3.000
8.351	7.000
8.355	6.000
8.358	3.000
8.361	1.000
8.364	3.000
8.368	2.000
8.371	1.000
8.374	0.000
8.377	3.000
8.380	1.000
8.384	3.000
8.387	0.000
8.390	6.000
8.393	4.000
8.396	5.000
8.400	4.000
8.403	2.000
8.406	2.000
8.409	5.000
8.412	2.000
8.416	10.000
8.419	5.000
8.422	3.000
8.425	1.000
8.429	0.000
8.432	4.000
8.435	4.000
8.438	4.000
8.441	6.000
8.445	5.000
8.448	3.000
8.451	6.000
8.454	4.000
8.457	4.000
8.461	9.000
8.464	5.000
8.467	9.000
8.470	3.000
8.473	4.000
8.477	5.000
8.480	0.000
8.483	4.000
8.486	4.000
8.490	7.000
8.493	3.000
8.496	9.000
8.499	3.000
8.502	2.000
8.506	8.000
8.509	1.000
8.512	6.000
8.515	6.000
8.518	7.000
8.522	3.000
8.525	3.000
8.528	1.000
8.531	8.000
8.534	4.000
8.538	4.000
8.541	2.000
8.544	3.000
8.547	7.000
8.551	3.000
8.554	2.000
8.557	2.000
8.560	4.000
8.563	4.000
8.567	3.000
8.570	5.000
8.573	4.000
8.576	2.000
8.579	3.000
8.583	4.000
8.586	4.000
8.589	1.000
8.592	3.000
8.595	5.000
8.599	2.000
8.602	4.000
8.605	7.000
8.608	3.000
8.612	3.000
8.615	4.000
8.618	8.000
8.621	6.000
8.624	4.000
8.628	2.000
8.631	5.000
8.634	1.000
8.637	17.000
8.640	3.000
8.644	5.000
8.647	6.000
8.650	5.000
8.653	6.000
8.656	3.000
8.660	3.000
8.663	2.000
8.666	3.000
8.669	5.000
8.673	1.000
8.676	1.000
8.679	4.000
8.682	6.000
8.685	7.000
8.689	9.000
8.692	5.000
8.695	3.000
8.698	4.000
8.701	9.000
8.705	11.000
8.708	7.000
8.711	5.000
8.714	9.000
8.718	6.000
8.721	3.000
8.724	6.000
8.727	6.000
8.730	4.000
8.734	8.000
8.737	6.000
8.740	7.000
8.743	2.000
8.746	2.000
8.750	7.000
8.753	12.000
8.756	6.000
8.759	3.000
8.762	5.000
8.766	9.000
8.769	6.000
8.772	6.000
8.775	3.000
8.779	7.000
8.782	5.000
8.785	8.000
8.788	5.000
8.791	5.000
8.795	9.000
8.798	6.000
8.801	4.000
8.804	3.000
8.807	6.000
8.811	4.000
8.814	10.000
8.817	7.000
8.820	0.000
8.823	2.000
8.827	5.000
8.830	2.000
8.833	5.000
8.836	7.000
8.840	13.000
8.843	3.000
8.846	3.000
8.849	5.000
8.852	3.000
8.856	4.000
8.859	7.000
8.862	7.000
8.865	8.000
8.868	14.000
8.872	3.000
8.875	5.000
8.878	6.000
8.881	7.000
8.884	6.000
8.888	6.000
8.891	5.000
8.894	6.000
8.897	6.000
8.901	5.000
8.904	4.000
8.907	5.000
8.910	8.000
8.913	8.000
8.917	7.000
8.920	10.000
8.923	5.000
8.926	4.000
8.929	8.000
8.933	5.000
8.936	10.000
8.939	6.000
8.942	7.000
8.945	6.000
8.949	7.000
8.952	5.000
8.955	5.000
8.958	5.000
8.962	12.000
8.965	5.000
8.968	6.000
8.971	5.000
8.974	5.000
8.978	4.000
8.981	7.000
8.984	8.000
8.987	5.000
8.990	3.000
8.994	7.000
8.997	1.000
9.000	8.000
9.003	8.000
9.006	9.000
9.010	7.000
9.013	10.000
9.016	3.000
9.019	10.000
9.023	8.000
9.026	5.000
9.029	6.000
9.032	6.000
9.035	11.000
9.039	4.000
9.042	8.000
9.045	9.000
9.048	4.000
9.051	6.000
9.055	10.000
9.058	12.000
9.061	6.000
9.064	8.000
9.068	9.000
9.071	10.000
9.074	8.000
9.077	9.000
9.080	8.000
9.084	11.000
9.087	5.000
9.090	6.000
9.093	4.000
9.096	9.000
9.100	3.000
9.103	4.000
9.106	9.000
9.109	7.000
9.112	10.000
9.116	8.000
9.119	9.000
9.122	8.000
9.125	5.000
9.129	5.000
9.132	7.000
9.135	7.000
9.138	10.000
9.141	8.000
9.145	9.000
9.148	14.000
9.151	15.000
9.154	6.000
9.157	11.000
9.161	12.000
9.164	6.000
9.167	6.000
9.170	17.000
9.173	13.000
9.177	7.000
9.180	14.000
9.183	12.000
9.186	9.000
9.190	6.000
9.193	12.000
9.196	7.000
9.199	10.000
9.202	6.000
9.206	5.000
9.209	2.000
9.212	10.000
9.215	4.000
9.218	14.000
9.222	6.000
9.225	13.000
9.228	8.000
9.231	13.000
9.234	4.000
9.238	7.000
9.241	11.000
9.244	7.000
9.247	10.000
9.251	10.000
9.254	7.000
9.257	3.000
9.260	8.000
9.263	11.000
9.267	11.000
9.270	7.000
9.273	6.000
9.276	11.000
9.279	9.000
9.283	15.000
9.286	11.000
9.289	9.000
9.292	13.000
9.295	9.000
9.299	7.000
9.302	10.000
9.305	11.000
9.308	7.000
9.312	13.000
9.315	12.000
9.318	10.000
9.321	12.000
9.324	14.000
9.328	7.000
9.331	15.000
9.334	12.000
9.337	3.000
9.340	11.000
9.344	12.000
9.347	10.000
9.350	10.000
9.353	15.000
9.356	16.000
9.360	9.000
9.363	18.000
9.366	11.000
9.369	17.000
9.373	14.000
9.376	12.000
9.379	12.000
9.382	17.000
9.385	10.000
9.389	15.000
9.392	10.000
9.395	9.000
9.398	10.000
9.401	12.000
9.405	13.000
9.408	10.000
9.411	7.000
9.414	14.000
9.418	8.000
9.421	9.000
9.424	12.000
9.427	14.000
9.430	10.000
9.434	12.000
9.437	12.000
9.440	12.000
9.443	9.000
9.446	11.000
9.450	10.000
9.453	14.000
9.456	14.000
9.459	18.000
9.462	16.000
9.466	7.000
9.469	9.000
9.472	12.000
9.475	27.000
9.479	10.000
9.482	5.000
9.485	13.000
9.488	15.000
9.491	7.000
9.495	5.000
9.498	6.000
9.501	7.000
9.504	9.000
9.507	9.000
9.511	12.000
9.514	15.000
9.517	15.000
9.520	8.000
9.523	8.000
9.527	14.000
9.530	11.000
9.533	7.000
9.536	7.000
9.540	15.000
9.543	18.000
9.546	11.000
9.549	11.000
9.552	9.000
9.556	10.000
9.559	6.000
9.562	7.000
9.565	7.000
9.568	11.000
9.572	10.000
9.575	7.000
9.578	9.000
9.581	13.000
9.584	9.000
9.588	5.000
9.591	5.000
9.594	7.000
9.597	7.000
9.601	10.000
9.604	12.000
9.607	13.000
9.610	11.000
9.613	10.000
9.617	16.000
9.620	9.000
9.623	12.000
9.626	10.000
9.629	6.000
9.633	11.000
9.636	9.000
9.639	4.000
9.642	10.000
9.645	9.000
9.649	10.000
9.652	13.000
9.655	10.000
9.658	8.000
9.662	10.000
9.665	12.000
9.668	10.000
9.671	9.000
9.674	9.000
9.678	11.000
9.681	7.000
9.684	3.000
9.687	8.000
9.690	6.000
9.694	9.000
9.697	4.000
9.700	10.000
9.703	11.000
9.706	7.000
9.710	4.000
9.713	8.000
9.716	16.000
9.719	6.000
9.723	7.000
9.726	11.000
9.729	12.000
9.732	10.000
9.735	13.000
9.739	14.000
9.742	7.000
9.745	11.000
9.748	13.000
9.751	8.000
9.755	12.000
9.758	9.000
9.761	17.000
9.764	16.000
9.768	12.000
9.771	11.000
9.774	11.000
9.777	7.000
9.780	11.000
9.784	11.000
9.787	10.000
9.790	19.000
9.793	14.000
9.796	9.000
9.800	17.000
9.803	15.000
9.806	12.000
9.809	13.000
9.812	14.000
9.816	8.000
9.819	7.000
9.822	19.000
9.825	18.000
9.829	9.000
9.832	3.000
9.835	7.000
9.838	13.000
9.841	10.000
9.845	14.000
9.848	9.000
9.851	5.000
9.854	9.000
9.857	19.000
9.861	15.000
9.864	10.000
9.867	11.000
9.870	9.000
9.873	19.000
9.877	9.000
9.880	10.000
9.883	16.000
9.886	11.000
9.890	14.000
9.893	13.000
9.896	13.000
9.899	13.000
9.902	14.000
9.906	13.000
9.909	22.000
9.912	13.000
9.915	23.000
9.918	18.000
9.922	17.000
9.925	13.000
9.928	14.000
9.931	15.000
9.934	14.000
9.938	10.000
9.941	8.000
9.944	15.000
9.947	15.000
9.951	19.000
9.954	27.000
9.957	14.000
9.960	15.000
9.963	12.000
9.967	19.000
9.970	14.000
9.973	13.000
9.976	15.000
9.979	18.000
9.983	16.000
9.986	23.000
9.989	17.000
9.992	16.000
9.995	16.000
9.999	17.000
10.002	11.000
10.005	14.000
10.008	12.000
10.012	14.000
10.015	17.000
10.018	18.000
10.021	20.000
10.024	12.000
10.028	21.000
10.031	16.000
10.034	12.000
10.037	16.000
10.040	15.000
10.044	24.000
10.047	22.000
10.050	16.000
10.053	18.000
10.056	20.000
10.060	10.000
10.063	17.000
10.066	16.000
10.069	15.000
10.073	13.000
10.076	21.000
10.079	18.000
10.082	18.000
10.085	17.000
10.089	17.000
10.092	14.000
10.095	14.000
10.098	16.000
10.101	23.000
10.105	23.000
10.108	13.000
10.111	16.000
10.114	22.000
10.118	30.000
10.121	17.000
10.124	22.000
10.127	17.000
10.130	22.000
10.134	25.000
10.137	16.000
10.140	17.000
10.143	25.000
10.146	18.000
10.150	29.000
10.153	16.000
10.156	20.000
10.159	23.000
10.162	21.000
10.166	16.000
10.169	17.000
10.172	18.000
10.175	21.000
10.179	26.000
10.182	25.000
10.185	17.000
10.188	17.000
10.191	17.000
10.195	17.000
10.198	28.000
10.201	26.000
10.204	24.000
10.207	22.000
10.211	23.000
10.214	23.000
10.217	22.000
10.220	20.000
10.223	13.000
10.227	23.000
10.230	17.000
10.233	28.000
10.236	25.000
10.240	20.000
10.243	28.000
10.246	15.000
10.249	21.000
10.252	29.000
10.256	18.000
10.259	18.000
10.262	24.000
10.265	18.000
10.268	20.000
10.272	18.000
10.275	26.000
10.278	31.000
10.281	22.000
10.284	16.000
10.288	24.000
10.291	26.000
10.294	30.000
10.297	37.000
10.301	34.000
10.304	25.000
10.307	30.000
10.310	24.000
10.313	19.000
10.317	21.000
10.320	11.000
10.323	21.000
10.326	22.000
10.329	22.000
10.333	30.000
10.336	29.000
10.339	34.000
10.342	33.000
10.345	28.000
10.349	39.000
10.352	29.000
10.355	30.000
10.358	35.000
10.362	30.000
10.365	28.000
10.368	26.000
10.371	32.000
10.374	32.000
10.378	35.000
10.381	32.000
10.384	27.000
10.387	38.000
10.390	28.000
10.394	26.000
10.397	34.000
10.400	39.000
10.403	34.000
10.406	25.000
10.410	32.000
10.413	40.000
10.416	31.000
10.419	32.000
10.423	30.000
10.426	36.000
10.429	31.000
10.432	41.000
10.435	35.000
10.439	42.000
10.442	28.000
10.445	27.000
10.448	23.000
10.451	28.000
10.455	30.000
10.458	34.000
10.461	33.000
10.464	30.000
10.468	30.000
10.471	31.000
10.474	35.000
10.477	33.000
10.480	28.000
10.484	21.000
10.487	28.000
10.490	29.000
10.493	26.000
10.496	27.000
10.500	31.000
10.503	38.000
10.506	21.000
10.509	41.000
10.512	26.000
10.516	35.000
10.519	39.000
10.522	22.000
10.525	27.000
10.529	39.000
10.532	38.000
10.535	19.000
10.538	33.000
10.541	46.000
10.545	27.000
10.548	38.000
10.551	30.000
10.554	31.000
10.557	32.000
10.561	34.000
10.564	40.000
10.567	39.000
10.570	39.000
10.573	37.000
10.577	42.000
10.580	52.000
10.583	35.000
10.586	47.000
10.590	51.000
10.593	30.000
10.596	33.000
10.599	37.000
10.602	46.000
10.606	45.000
10.609	49.000
10.612	35.000
10.615	45.000
10.618	36.000
10.622	32.000
10.625	44.000
10.628	48.000
10.631	44.000
10.634	45.000
10.638	34.000
10.641	45.000
10.644	34.000
10.647	41.000
10.651	38.000
10.654	30.000
10.657	30.000
10.660	25.000
10.663	45.000
10.667	52.000
10.670	40.000
10.673	40.000
10.676	49.000
10.679	45.000
10.683	45.000
10.686	49.000
10.689	35.000
10.692	47.000
10.695	35.000
10.699	40.000
10.702	34.000
10.705	36.000
10.708	27.000
10.712	47.000
10.715	31.000
10.718	41.000
10.721	41.000
10.724	40.000
10.728	37.000
10.731	46.000
10.734	45.000
10.737	46.000
10.740	45.000
10.744	40.000
10.747	47.000
10.750	44.000
10.753	51.000
10.756	55.000
10.760	39.000
10.763	44.000
10.766	54.000
10.769	57.000
10.773	51.000
10.776	59.000
10.779	40.000
10.782	41.000
10.785	54.000
10.789	47.000
10.792	53.000
10.795	54.000
10.798	50.000
10.801	45.000
10.805	56.000
10.808	47.000
10.811	48.000
10.814	54.000
10.818	39.000
10.821	50.000
10.824	47.000
10.827	39.000
10.830	60.000
10.834	53.000
10.837	49.000
10.840	50.000
10.843	54.000
10.846	52.000
10.850	50.000
10.853	50.000
10.856	40.000
10.859	56.000
10.862	40.000
10.866	59.000
10.869	40.000
10.872	58.000
10.875	43.000
10.879	55.000
10.882	58.000
10.885	59.000
10.888	54.000
10.891	54.000
10.895	41.000
10.898	58.000
10.901	52.000
10.904	48.000
10.907	65.000
10.911	56.000
10.914	45.000
10.917	52.000
10.920	53.000
10.923	61.000
10.927	61.000
10.930	55.000
10.933	59.000
10.936	61.000
10.940	56.000
10.943	48.000
10.946	67.000
10.949	60.000
10.952	48.000
10.956	61.000
10.959	56.000
10.962	65.000
10.965	47.000
10.968	44.000
10.972	64.000
10.975	52.000
10.978	59.000
10.981	58.000
10.984	61.000
10.988	61.000
10.991	58.000
10.994	60.000
10.997	75.000
11.001	41.000
11.004	50.000
11.007	58.000
11.010	57.000
11.013	47.000
11.017	69.000
11.020	54.000
11.023	52.000
11.026	55.000
11.029	70.000
11.033	67.000
11.036	69.000
11.039	62.000
11.042	64.000
11.045	59.000
11.049	80.000
11.052	69.000
11.055	79.000
11.058	56.000
11.062	68.000
11.065	70.000
11.068	82.000
11.071	72.000
11.074	60.000
11.078	68.000
11.081	70.000
11.084	52.000
11.087	75.000
11.090	71.000
11.094	60.000
11.097	63.000
11.100	71.000
11.103	55.000
11.106	89.000
11.110	63.000
11.113	69.000
11.116	63.000
11.119	76.000
11.123	81.000
11.126	81.000
11.129	74.000
11.132	89.000
11.135	72.000
11.139	76.000
11.142	90.000
11.145	62.000
11.148	77.000
11.151	84.000
11.155	76.000
11.158	62.000
11.161	84.000
11.164	87.000
11.167	76.000
11.171	64.000
11.174	69.000
11.177	79.000
11.180	82.000
11.184	74.000
11.187	78.000
11.190	83.000
11.193	71.000
11.196	71.000
11.200	81.000
11.203	77.000
11.206	76.000
11.209	73.000
11.212	84.000
11.216	74.000
11.219	55.000
11.222	87.000
11.225	88.000
11.229	74.000
11.232	79.000
11.235	79.000
11.238	90.000
11.241	67.000
11.245	103.000
11.248	75.000
11.251	84.000
11.254	68.000
11.257	74.000
11.261	68.000
11.264	88.000
11.267	82.000
11.270	76.000
11.273	110.000
11.277	97.000
11.280	89.000
11.283	79.000
11.286	88.000
11.290	94.000
11.293	90.000
11.296	86.000
11.299	91.000
11.302	84.000
11.306	113.000
11.309	81.000
11.312	79.000
11.315	88.000
11.318	51.000
11.322	96.000
11.325	96.000
11.328	66.000
11.331	102.000
11.334	94.000
11.338	116.000
11.341	79.000
11.344	94.000
11.347	83.000
11.351	109.000
11.354	88.000
11.357	114.000
11.360	81.000
11.363	103.000
11.367	90.000
11.370	83.000
11.373	88.000
11.376	93.000
11.379	108.000
11.383	99.000
11.386	88.000
11.389	113.000
11.392	102.000
11.395	89.000
11.399	84.000
11.402	86.000
11.405	101.000
11.408	93.000
11.412	96.000
11.415	115.000
11.418	98.000
11.421	80.000
11.424	117.000
11.428	123.000
11.431	111.000
11.434	94.000
11.437	102.000
11.440	114.000
11.444	84.000
11.447	112.000
11.450	104.000
11.453	99.000
11.456	107.000
11.460	120.000
11.463	109.000
11.466	107.000
11.469	113.000
11.473	102.000
11.476	117.000
11.479	93.000
11.482	88.000
11.485	110.000
11.489	115.000
11.492	96.000
11.495	117.000
11.498	115.000
11.501	106.000
11.505	117.000
11.508	126.000
11.511	105.000
11.514	108.000
11.517	114.000
11.521	88.000
11.524	99.000
11.527	126.000
11.530	111.000
11.534	113.000
11.537	104.000
11.540	96.000
11.543	126.000
11.546	121.000
11.550	102.000
11.553	106.000
11.556	116.000
11.559	107.000
11.562	99.000
11.566	114.000
11.569	121.000
11.572	111.000
11.575	93.000
11.579	113.000
11.582	125.000
11.585	109.000
11.588	118.000
11.591	117.000
11.595	132.000
11.598	128.000
11.601	102.000
11.604	117.000
11.607	104.000
11.611	123.000
11.614	113.000
11.617	122.000
11.620	112.000
11.623	125.000
11.627	109.000
11.630	128.000
11.633	112.000
11.636	114.000
11.640	118.000
11.643	121.000
11.646	131.000
11.649	116.000
11.652	117.000
11.656	130.000
11.659	131.000
11.662	127.000
11.665	109.000
11.668	149.000
11.672	123.000
11.675	127.000
11.678	110.000
11.681	103.000
11.684	142.000
11.688	132.000
11.691	109.000
11.694	136.000
11.697	124.000
11.701	123.000
11.704	111.000
11.707	124.000
11.710	139.000
11.713	150.000
11.717	120.000
11.720	129.000
11.723	130.000
11.726	128.000
11.729	139.000
11.733	136.000
11.736	105.000
11.739	128.000
11.742	115.000
11.745	133.000
11.749	143.000
11.752	132.000
11.755	125.000
11.758	125.000
11.762	139.000
11.765	135.000
11.768	135.000
11.771	148.000
11.774	142.000
11.778	142.000
11.781	134.000
11.784	125.000
11.787	112.000
11.790	137.000
11.794	137.000
11.797	152.000
11.800	141.000
11.803	143.000
11.806	145.000
11.810	140.000
11.813	155.000
11.816	130.000
11.819	154.000
11.823	162.000
11.826	147.000
11.829	142.000
11.832	145.000
11.835	157.000
11.839	156.000
11.842	157.000
11.845	150.000
11.848	163.000
11.851	160.000
11.855	146.000
11.858	152.000
11.861	146.000
11.864	150.000
11.867	136.000
11.871	152.000
11.874	160.000
11.877	163.000
11.880	154.000
11.884	143.000
11.887	143.000
11.890	161.000
11.893	171.000
11.896	153.000
11.900	143.000
11.903	158.000
11.906	169.000
11.909	145.000
11.912	169.000
11.916	157.000
11.919	172.000
11.922	142.000
11.925	147.000
11.929	181.000
11.932	125.000
11.935	145.000
11.938	161.000
11.941	170.000
11.945	136.000
11.948	150.000
11.951	150.000
11.954	141.000
11.957	175.000
11.961	161.000
11.964	155.000
11.967	172.000
11.970	172.000
11.973	153.000
11.977	185.000
11.980	182.000
11.983	157.000
11.986	173.000
11.990	182.000
11.993	166.000
11.996	174.000
11.999	165.000
12.002	169.000
12.006	143.000
12.009	171.000
12.012	146.000
12.015	174.000
12.018	158.000
12.022	174.000
12.025	154.000
12.028	155.000
12.031	155.000
12.034	159.000
12.038	167.000
12.041	166.000
12.044	164.000
12.047	160.000
12.051	152.000
12.054	180.000
12.057	180.000
12.060	164.000
12.063	163.000
12.067	174.000
12.070	140.000
12.073	179.000
12.076	205.000
12.079	167.000
12.083	200.000
12.086	152.000
12.089	171.000
12.092	175.000
12.095	172.000
12.099	161.000
12.102	161.000
12.105	199.000
12.108	176.000
12.112	173.000
12.115	177.000
12.118	182.000
12.121	217.000
12.124	167.000
12.128	173.000
12.131	172.000
12.134	179.000
12.137	187.000
12.140	178.000
12.144	185.000
12.147	153.000
12.150	168.000
12.153	180.000
12.156	191.000
12.160	187.000
12.163	184.000
12.166	172.000
12.169	158.000
12.173	192.000
12.176	186.000
12.179	170.000
12.182	187.000
12.185	186.000
12.189	191.000
12.192	193.000
12.195	184.000
12.198	181.000
12.201	180.000
12.205	195.000
12.208	182.000
12.211	180.000
12.214	168.000
12.217	196.000
12.221	202.000
12.224	178.000
12.227	178.000
12.230	180.000
12.234	182.000
12.237	210.000
12.240	176.000
12.243	195.000
12.246	173.000
12.250	206.000
12.253	192.000
12.256	179.000
12.259	212.000
12.262	198.000
12.266	204.000
12.269	173.000
12.272	172.000
12.275	186.000
12.279	170.000
12.282	203.000
12.285	224.000
12.288	188.000
12.291	173.000
12.295	194.000
12.298	195.000
12.301	185.000
12.304	198.000
12.307	211.000
12.311	201.000
12.314	215.000
12.317	190.000
12.320	180.000
12.323	200.000
12.327	197.000
12.330	197.000
12.333	185.000
12.336	196.000
12.340	226.000
12.343	193.000
12.346	213.000
12.349	200.000
12.352	212.000
12.356	193.000
12.359	207.000
12.362	218.000
12.365	207.000
12.368	208.000
12.372	187.000
12.375	231.000
12.378	201.000
12.381	209.000
12.384	229.000
12.388	199.000
12.391	198.000
12.394	183.000
12.397	210.000
12.401	224.000
12.404	204.000
12.407	227.000
12.410	208.000
12.413	218.000
12.417	238.000
12.420	209.000
12.423	191.000
12.426	210.000
12.429	217.000
12.433	224.000
12.436	221.000
12.439	231.000
12.442	202.000
12.445	200.000
12.449	226.000
12.452	240.000
12.455	189.000
12.458	205.000
12.462	210.000
12.465	220.000
12.468	225.000
12.471	245.000
12.474	208.000
12.478	219.000
12.481	214.000
12.484	229.000
12.487	234.000
12.490	227.000
12.494	209.000
12.497	219.000
12.500	228.000
12.503	225.000
12.506	197.000
12.510	219.000
12.513	222.000
12.516	224.000
12.519	232.000
12.523	225.000
12.526	201.000
12.529	252.000
12.532	218.000
12.535	219.000
12.539	227.000
12.542	223.000
12.545	224.000
12.548	232.000
12.551	220.000
12.555	195.000
12.558	255.000
12.561	208.000
12.564	235.000
12.567	231.000
12.571	235.000
12.574	220.000
12.577	229.000
12.580	247.000
12.584	242.000
12.587	223.000
12.590	230.000
12.593	230.000
12.596	241.000
12.600	238.000
12.603	225.000
12.606	236.000
12.609	260.000
12.612	231.000
12.616	253.000
12.619	253.000
12.622	258.000
12.625	234.000
12.629	203.000
12.632	251.000
12.635	261.000
12.638	225.000
12.641	242.000
12.645	259.000
12.648	242.000
12.651	251.000
12.654	238.000
12.657	277.000
12.661	268.000
12.664	231.000
12.667	248.000
12.670	254.000
12.673	274.000
12.677	249.000
12.680	269.000
12.683	269.000
12.686	259.000
12.690	246.000
12.693	244.000
12.696	272.000
12.699	252.000
12.702	230.000
12.706	256.000
12.709	277.000
12.712	228.000
12.715	233.000
12.718	274.000
12.722	262.000
12.725	281.000
12.728	245.000
12.731	243.000
12.734	255.000
12.738	289.000
12.741	268.000
12.744	210.000
12.747	269.000
12.751	262.000
12.754	261.000
12.757	243.000
12.760	263.000
12.763	273.000
12.767	254.000
12.770	314.000
12.773	304.000
12.776	272.000
12.779	283.000
12.783	234.000
12.786	271.000
12.789	320.000
12.792	279.000
12.795	272.000
12.799	348.000
12.802	309.000
12.805	238.000
12.808	263.000
12.812	260.000
12.815	259.000
12.818	256.000
12.821	268.000
12.824	265.000
12.828	258.000
12.831	270.000
12.834	278.000
12.837	264.000
12.840	285.000
12.844	282.000
12.847	240.000
12.850	311.000
12.853	308.000
12.856	294.000
12.860	275.000
12.863	302.000
12.866	280.000
12.869	277.000
12.873	283.000
12.876	290.000
12.879	287.000
12.882	247.000
12.885	288.000
12.889	320.000
12.892	276.000
12.895	288.000
12.898	284.000
12.901	315.000
12.905	307.000
12.908	305.000
12.911	285.000
12.914	303.000
12.917	290.000
12.921	317.000
12.924	293.000
12.927	334.000
12.930	292.000
12.934	255.000
12.937	314.000
12.940	293.000
12.943	303.000
12.946	293.000
12.950	257.000
12.953	324.000
12.956	328.000
12.959	259.000
12.962	336.000
12.966	348.000
12.969	292.000
12.972	292.000
12.975	316.000
12.979	280.000
12.982	318.000
12.985	317.000
12.988	294.000
12.991	380.000
12.995	324.000
12.998	306.000
13.001	361.000
13.004	325.000
13.007	315.000
13.011	290.000
13.014	299.000
13.017	308.000
13.020	342.000
13.023	314.000
13.027	314.000
13.030	363.000
13.033	352.000
13.036	310.000
13.040	295.000
13.043	321.000
13.046	311.000
13.049	352.000
13.052	333.000
13.056	309.000
13.059	360.000
13.062	325.000
13.065	284.000
13.068	311.000
13.072	304.000
13.075	323.000
13.078	335.000
13.081	317.000
13.084	333.000
13.088	315.000
13.091	349.000
13.094	332.000
13.097	361.000
13.101	327.000
13.104	296.000
13.107	358.000
13.110	346.000
13.113	301.000
13.117	326.000
13.120	289.000
13.123	309.000
13.126	342.000
13.129	297.000
13.133	333.000
13.136	360.000
13.139	320.000
13.142	314.000
13.145	351.000
13.149	327.000
13.152	315.000
13.155	334.000
13.158	359.000
13.162	315.000
13.165	307.000
13.168	339.000
13.171	370.000
13.174	353.000
13.178	327.000
13.181	341.000
13.184	366.000
13.187	341.000
13.190	336.000
13.194	334.000
13.197	348.000
13.200	364.000
13.203	357.000
13.206	332.000
13.210	362.000
13.213	383.000
13.216	381.000
13.219	307.000
13.223	319.000
13.226	355.000
13.229	298.000
13.232	329.000
13.235	356.000
13.239	331.000
13.242	329.000
13.245	291.000
13.248	319.000
13.251	321.000
13.255	368.000
13.258	347.000
13.261	368.000
13.264	336.000
13.267	343.000
13.271	301.000
13.274	323.000
13.277	352.000
13.280	328.000
13.284	337.000
13.287	394.000
13.290	319.000
13.293	356.000
13.296	323.000
13.300	384.000
13.303	354.000
13.306	389.000
13.309	360.000
13.312	341.000
13.316	378.000
13.319	375.000
13.322	344.000
13.325	346.000
13.329	375.000
13.332	319.000
13.335	301.000
13.338	386.000
13.341	346.000
13.345	340.000
13.348	321.000
13.351	360.000
13.354	350.000
13.357	385.000
13.361	337.000
13.364	360.000
13.367	387.000
13.370	370.000
13.373	327.000
13.377	367.000
13.380	346.000
13.383	342.000
13.386	331.000
13.390	345.000
13.393	371.000
13.396	351.000
13.399	322.000
13.402	358.000
13.406	360.000
13.409	339.000
13.412	369.000
13.415	357.000
13.418	304.000
13.422	316.000
13.425	367.000
13.428	347.000
13.431	381.000
13.434	329.000
13.438	369.000
13.441	365.000
13.444	361.000
13.447	377.000
13.451	337.000
13.454	338.000
13.457	370.000
13.460	388.000
13.463	330.000
13.467	374.000
13.470	324.000
13.473	366.000
13.476	372.000
13.479	372.000
13.483	347.000
13.486	377.000
13.489	333.000
13.492	368.000
13.495	357.000
13.499	394.000
13.502	328.000
13.505	360.000
13.508	362.000
13.512	393.000
13.515	388.000
13.518	366.000
13.521	355.000
13.524	331.000
13.528	349.000
13.531	370.000
13.534	387.000
13.537	410.000
13.540	374.000
13.544	401.000
13.547	377.000
13.550	366.000
13.553	372.000
13.556	384.000
13.560	396.000
13.563	368.000
13.566	344.000
13.569	403.000
13.573	406.000
13.576	380.000
13.579	375.000
13.582	395.000
13.585	421.000
13.589	360.000
13.592	340.000
13.595	372.000
13.598	373.000
13.601	362.000
13.605	363.000
13.608	415.000
13.611	394.000
13.614	374.000
13.617	366.000
13.621	380.000
13.624	412.000
13.627	377.000
13.630	381.000
13.634	423.000
13.637	402.000
13.640	393.000
13.643	389.000
13.646	397.000
13.650	378.000
13.653	376.000
13.656	391.000
13.659	388.000
13.662	427.000
13.666	382.000
13.669	346.000
13.672	380.000
13.675	414.000
13.679	396.000
13.682	359.000
13.685	417.000
13.688	422.000
13.691	370.000
13.695	378.000
13.698	412.000
13.701	381.000
13.704	367.000
13.707	422.000
13.711	445.000
13.714	374.000
13.717	416.000
13.720	436.000
13.723	433.000
13.727	420.000
13.730	372.000
13.733	389.000
13.736	400.000
13.740	424.000
13.743	373.000
13.746	388.000
13.749	425.000
13.752	369.000
13.756	389.000
13.759	378.000
13.762	408.000
13.765	406.000
13.768	426.000
13.772	427.000
13.775	440.000
13.778	402.000
13.781	390.000
13.784	360.000
13.788	475.000
13.791	407.000
13.794	409.000
13.797	440.000
13.801	409.000
13.804	419.000
13.807	365.000
13.810	386.000
13.813	401.000
13.817	425.000
13.820	380.000
13.823	425.000
13.826	463.000
13.829	397.000
13.833	389.000
13.836	384.000
13.839	413.000
13.842	419.000
13.845	406.000
13.849	433.000
13.852	436.000
13.855	472.000
13.858	414.000
13.862	399.000
13.865	415.000
13.868	459.000
13.871	419.000
13.874	389.000
13.878	416.000
13.881	422.000
13.884	402.000
13.887	423.000
13.890	442.000
13.894	425.000
13.897	434.000
13.900	408.000
13.903	428.000
13.906	388.000
13.910	399.000
13.913	406.000
13.916	437.000
13.919	391.000
13.923	418.000
13.926	372.000
13.929	453.000
13.932	422.000
13.935	417.000
13.939	421.000
13.942	457.000
13.945	431.000
13.948	401.000
13.951	428.000
13.955	447.000
13.958	419.000
13.961	432.000
13.964	411.000
13.967	438.000
13.971	405.000
13.974	400.000
13.977	416.000
13.980	443.000
13.984	423.000
13.987	439.000
13.990	403.000
13.993	465.000
13.996	456.000
14.000	399.000
14.003	452.000
14.006	450.000
14.009	441.000
14.012	439.000
14.016	431.000
14.019	432.000
14.022	403.000
14.025	438.000
14.029	421.000
14.032	431.000
14.035	407.000
14.038	425.000
14.041	420.000
14.045	462.000
14.048	428.000
14.051	443.000
14.054	406.000
14.057	441.000
14.061	438.000
14.064	400.000
14.067	447.000
14.070	406.000
14.073	463.000
14.077	416.000
14.080	455.000
14.083	421.000
14.086	486.000
14.090	413.000
14.093	407.000
14.096	479.000
14.099	419.000
14.102	412.000
14.106	429.000
14.109	436.000
14.112	416.000
14.115	387.000
14.118	414.000
14.122	467.000
14.125	461.000
14.128	417.000
14.131	430.000
14.134	444.000
14.138	478.000
14.141	411.000
14.144	413.000
14.147	443.000
14.151	428.000
14.154	456.000
14.157	450.000
14.160	424.000
14.163	493.000
14.167	443.000
14.170	440.000
14.173	476.000
14.176	433.000
14.179	448.000
14.183	455.000
14.186	456.000
14.189	426.000
14.192	458.000
14.195	449.000
14.199	422.000
14.202	468.000
14.205	448.000
14.208	438.000
14.212	483.000
14.215	474.000
14.218	452.000
14.221	439.000
14.224	448.000
14.228	500.000
14.231	428.000
14.234	418.000
14.237	455.000
14.240	478.000
14.244	439.000
14.247	422.000
14.250	428.000
14.253	458.000
14.256	455.000
14.260	476.000
14.263	459.000
14.266	456.000
14.269	412.000
14.273	448.000
14.276	462.000
14.279	472.000
14.282	436.000
14.285	472.000
14.289	468.000
14.292	461.000
14.295	466.000
14.298	486.000
14.301	499.000
14.305	425.000
14.308	447.000
14.311	453.000
14.314	509.000
14.317	449.000
14.321	425.000
14.324	424.000
14.327	484.000
14.330	504.000
14.334	448.000
14.337	451.000
14.340	435.000
14.343	515.000
14.346	456.000
14.350	469.000
14.353	440.000
14.356	478.000
14.359	462.000
14.362	506.000
14.366	513.000
14.369	468.000
14.372	482.000
14.375	456.000
14.378	507.000
14.382	454.000
14.385	536.000
14.388	448.000
14.391	479.000
14.395	467.000
14.398	436.000
14.401	490.000
14.404	499.000
14.407	509.000
14.411	459.000
14.414	428.000
14.417	483.000
14.420	475.000
14.423	445.000
14.427	483.000
14.430	518.000
14.433	502.000
14.436	493.000
14.440	443.000
14.443	498.000
14.446	489.000
14.449	435.000
14.452	463.000
14.456	507.000
14.459	485.000
14.462	482.000
14.465	514.000
14.468	482.000
14.472	438.000
14.475	481.000
14.478	474.000
14.481	493.000
14.484	482.000
14.488	506.000
14.491	490.000
14.494	476.000
14.497	494.000
14.501	426.000
14.504	471.000
14.507	450.000
14.510	484.000
14.513	462.000
14.517	482.000
14.520	490.000
14.523	498.000
14.526	465.000
14.529	420.000
14.533	533.000
14.536	460.000
14.539	481.000
14.542	511.000
14.545	481.000
14.549	489.000
14.552	462.000
14.555	478.000
14.558	447.000
14.562	494.000
14.565	470.000
14.568	512.000
14.571	538.000
14.574	506.000
14.578	514.000
14.581	495.000
14.584	508.000
14.587	536.000
14.590	493.000
14.594	479.000
14.597	542.000
14.600	488.000
14.603	471.000
14.606	548.000
14.610	553.000
14.613	474.000
14.616	523.000
14.619	462.000
14.623	506.000
14.626	490.000
14.629	487.000
14.632	489.000
14.635	511.000
14.639	494.000
14.642	458.000
14.645	483.000
14.648	509.000
14.651	510.000
14.655	439.000
14.658	472.000
14.661	538.000
14.664	515.000
14.667	487.000
14.671	483.000
14.674	547.000
14.677	527.000
14.680	499.000
14.684	473.000
14.687	505.000
14.690	466.000
14.693	481.000
14.696	494.000
14.700	537.000
14.703	516.000
14.706	496.000
14.709	452.000
14.712	554.000
14.716	533.000
14.719	534.000
14.722	475.000
14.725	495.000
14.728	525.000
14.732	528.000
14.735	512.000
14.738	503.000
14.741	532.000
14.745	490.000
14.748	467.000
14.751	512.000
14.754	534.000
14.757	532.000
14.761	453.000
14.764	495.000
14.767	494.000
14.770	539.000
14.773	537.000
14.777	541.000
14.780	557.000
14.783	463.000
14.786	507.000
14.790	516.000
14.793	519.000
14.796	530.000
14.799	492.000
14.802	549.000
14.806	504.000
14.809	547.000
14.812	507.000
14.815	545.000
14.818	527.000
14.822	473.000
14.825	559.000
14.828	528.000
14.831	513.000
14.834	534.000
14.838	502.000
14.841	540.000
14.844	510.000
14.847	578.000
14.851	537.000
14.854	544.000
14.857	536.000
14.860	495.000
14.863	540.000
14.867	479.000
14.870	530.000
14.873	513.000
14.876	500.000
14.879	585.000
14.883	528.000
14.886	536.000
14.889	509.000
14.892	552.000
14.895	517.000
14.899	512.000
14.902	530.000
14.905	533.000
14.908	521.000
14.912	506.000
14.915	497.000
14.918	502.000
14.921	528.000
14.924	497.000
14.928	522.000
14.931	583.000
14.934	546.000
14.937	512.000
14.940	499.000
14.944	562.000
14.947	551.000
14.950	574.000
14.953	506.000
14.956	543.000
14.960	564.000
14.963	520.000
14.966	513.000
14.969	527.000
14.973	514.000
14.976	515.000
14.979	512.000
14.982	606.000
14.985	568.000
14.989	498.000
14.992	550.000
14.995	526.000
14.998	523.000
15.001	556.000
15.005	502.000
15.008	531.000
15.011	572.000
15.014	516.000
15.017	496.000
15.021	550.000
15.024	578.000
15.027	557.000
15.030	507.000
15.034	527.000
15.037	572.000
15.040	501.000
15.043	541.000
15.046	578.000
15.050	488.000
15.053	436.000
15.056	452.000
15.059	536.000
15.062	547.000
15.066	478.000
15.069	490.000
15.072	497.000
15.075	549.000
15.078	530.000
15.082	532.000
15.085	549.000
15.088	550.000
15.091	503.000
15.095	519.000
15.098	512.000
15.101	540.000
15.104	556.000
15.107	462.000
15.111	576.000
15.114	521.000
15.117	529.000
15.120	546.000
15.123	523.000
15.127	551.000
15.130	541.000
15.133	557.000
15.136	545.000
15.140	578.000
15.143	536.000
15.146	523.000
15.149	544.000
15.152	500.000
15.156	527.000
15.159	555.000
15.162	539.000
15.165	569.000
15.168	557.000
15.172	508.000
15.175	531.000
15.178	516.000
15.181	501.000
15.184	518.000
15.188	550.000
15.191	599.000
15.194	528.000
15.197	513.000
15.201	552.000
15.204	517.000
15.207	517.000
15.210	521.000
15.213	502.000
15.217	560.000
15.220	528.000
15.223	547.000
15.226	559.000
15.229	540.000
15.233	524.000
15.236	499.000
15.239	583.000
15.242	564.000
15.245	557.000
15.249	502.000
15.252	611.000
15.255	596.000
15.258	592.000
15.262	549.000
15.265	565.000
15.268	553.000
15.271	514.000
15.274	505.000
15.278	533.000
15.281	546.000
15.284	510.000
15.287	555.000
15.290	548.000
15.294	570.000
15.297	503.000
15.300	532.000
15.303	539.000
15.306	571.000
15.310	544.000
15.313	551.000
15.316	623.000
15.319	599.000
15.323	541.000
15.326	601.000
15.329	600.000
15.332	579.000
15.335	531.000
15.339	576.000
15.342	588.000
15.345	590.000
15.348	514.000
15.351	584.000
15.355	630.000
15.358	583.000
15.361	549.000
15.364	552.000
15.367	600.000
15.371	622.000
15.374	541.000
15.377	550.000
15.380	599.000
15.384	588.000
15.387	589.000
15.390	576.000
15.393	578.000
15.396	595.000
15.400	575.000
15.403	632.000
15.406	596.000
15.409	600.000
15.412	571.000
15.416	590.000
15.419	618.000
15.422	610.000
15.425	599.000
15.428	545.000
15.432	620.000
15.435	616.000
15.438	593.000
15.441	580.000
15.445	626.000
15.448	580.000
15.451	545.000
15.454	573.000
15.457	621.000
15.461	599.000
15.464	547.000
15.467	532.000
15.470	618.000
15.473	626.000
15.477	556.000
15.480	587.000
15.483	604.000
15.486	548.000
15.490	618.000
15.493	604.000
15.496	540.000
15.499	631.000
15.502	589.000
15.506	574.000
15.509	610.000
15.512	566.000
15.515	575.000
15.518	596.000
15.522	622.000
15.525	577.000
15.528	557.000
15.531	573.000
15.534	581.000
15.538	626.000
15.541	572.000
15.544	550.000
15.547	623.000
15.551	558.000
15.554	534.000
15.557	553.000
15.560	612.000
15.563	586.000
15.567	541.000
15.570	607.000
15.573	615.000
15.576	532.000
15.579	543.000
15.583	544.000
15.586	565.000
15.589	552.000
15.592	552.000
15.595	567.000
15.599	552.000
15.602	557.000
15.605	512.000
15.608	520.000
15.612	580.000
15.615	603.000
15.618	570.000
15.621	559.000
15.624	567.000
15.628	551.000
15.631	516.000
15.634	566.000
15.637	543.000
15.640	575.000
15.644	509.000
15.647	589.000
15.650	562.000
15.653	579.000
15.656	537.000
15.660	539.000
15.663	572.000
15.666	584.000
15.669	569.000
15.673	595.000
15.676	523.000
15.679	649.000
15.682	516.000
15.685	514.000
15.689	575.000
15.692	542.000
15.695	543.000
15.698	531.000
15.701	558.000
15.705	606.000
15.708	603.000
15.711	533.000
15.714	555.000
15.717	553.000
15.721	582.000
15.724	598.000
15.727	555.000
15.730	576.000
15.734	542.000
15.737	565.000
15.740	563.000
15.743	529.000
15.746	530.000
15.750	565.000
15.753	519.000
15.756	529.000
15.759	571.000
15.762	591.000
15.766	579.000
15.769	556.000
15.772	552.000
15.775	592.000
15.778	560.000
15.782	562.000
15.785	535.000
15.788	537.000
15.791	548.000
15.795	552.000
15.798	598.000
15.801	565.000
15.804	541.000
15.807	567.000
15.811	533.000
15.814	530.000
15.817	633.000
15.820	546.000
15.823	543.000
15.827	538.000
15.830	562.000
15.833	569.000
15.836	574.000
15.840	535.000
15.843	547.000
15.846	563.000
15.849	567.000
15.852	553.000
15.856	608.000
15.859	570.000
15.862	561.000
15.865	553.000
15.868	553.000
15.872	585.000
15.875	529.000
15.878	532.000
15.881	537.000
15.884	518.000
15.888	522.000
15.891	520.000
15.894	551.000
15.897	586.000
15.901	534.000
15.904	585.000
15.907	542.000
15.910	566.000
15.913	581.000
15.917	591.000
15.920	606.000
15.923	593.000
15.926	566.000
15.929	557.000
15.933	611.000
15.936	584.000
15.939	557.000
15.942	502.000
15.945	568.000
15.949	617.000
15.952	593.000
15.955	556.000
15.958	575.000
15.962	588.000
15.965	549.000
15.968	596.000
15.971	576.000
15.974	554.000
15.978	595.000
15.981	553.000
15.984	579.000
15.987	634.000
15.990	541.000
15.994	552.000
15.997	574.000
16.000	586.000
16.003	557.000
16.006	596.000
16.010	586.000
16.013	605.000
16.016	566.000
16.019	561.000
16.023	609.000
16.026	599.000
16.029	525.000
16.032	547.000
16.035	569.000
16.039	568.000
16.042	597.000
16.045	561.000
16.048	588.000
16.051	628.000
16.055	570.000
16.058	596.000
16.061	571.000
16.064	571.000
16.067	597.000
16.071	560.000
16.074	544.000
16.077	576.000
16.080	577.000
16.084	566.000
16.087	658.000
16.090	623.000
16.093	524.000
16.096	506.000
16.100	592.000
16.103	613.000
16.106	562.000
16.109	584.000
16.112	611.000
16.116	574.000
16.119	595.000
16.122	566.000
16.125	596.000
16.128	613.000
16.132	572.000
16.135	567.000
16.138	545.000
16.141	584.000
16.145	555.000
16.148	573.000
16.151	605.000
16.154	578.000
16.157	600.000
16.161	561.000
16.164	592.000
16.167	612.000
16.170	569.000
16.173	569.000
16.177	572.000
16.180	570.000
16.183	592.000
16.186	596.000
16.190	598.000
16.193	630.000
16.196	534.000
16.199	530.000
16.202	633.000
16.206	507.000
16.209	577.000
16.212	610.000
16.215	589.000
16.218	588.000
16.222	603.000
16.225	588.000
16.228	627.000
16.231	585.000
16.234	578.000
16.238	541.000
16.241	580.000
16.244	582.000
16.247	551.000
16.251	521.000
16.254	584.000
16.257	576.000
16.260	558.000
16.263	547.000
16.267	581.000
16.270	596.000
16.273	592.000
16.276	572.000
16.279	584.000
16.283	549.000
16.286	591.000
16.289	551.000
16.292	604.000
16.295	594.000
16.299	573.000
16.302	565.000
16.305	620.000
16.308	565.000
16.312	584.000
16.315	564.000
16.318	608.000
16.321	584.000
16.324	584.000
16.328	531.000
16.331	625.000
16.334	600.000
16.337	592.000
16.340	580.000
16.344	597.000
16.347	615.000
16.350	553.000
16.353	556.000
16.356	582.000
16.360	565.000
16.363	568.000
16.366	591.000
16.369	579.000
16.373	582.000
16.376	586.000
16.379	568.000
16.382	587.000
16.385	584.000
16.389	584.000
16.392	514.000
16.395	586.000
16.398	582.000
16.401	576.000
16.405	575.000
16.408	610.000
16.411	601.000
16.414	565.000
16.417	563.000
16.421	628.000
16.424	602.000
16.427	581.000
16.430	574.000
16.434	616.000
16.437	641.000
16.440	581.000
16.443	578.000
16.446	561.000
16.450	575.000
16.453	559.000
16.456	559.000
16.459	595.000
16.462	615.000
16.466	597.000
16.469	562.000
16.472	584.000
16.475	627.000
16.478	550.000
16.482	568.000
16.485	608.000
16.488	592.000
16.491	575.000
16.495	587.000
16.498	558.000
16.501	579.000
16.504	566.000
16.507	538.000
16.511	552.000
16.514	577.000
16.517	583.000
16.520	586.000
16.523	586.000
16.527	612.000
16.530	580.000
16.533	545.000
16.536	580.000
16.540	580.000
16.543	609.000
16.546	538.000
16.549	574.000
16.552	603.000
16.556	567.000
16.559	545.000
16.562	622.000
16.565	610.000
16.568	558.000
16.572	583.000
16.575	578.000
16.578	646.000
16.581	581.000
16.584	550.000
16.588	602.000
16.591	568.000
16.594	547.000
16.597	578.000
16.601	629.000
16.604	627.000
16.607	580.000
16.610	553.000
16.613	612.000
16.617	618.000
16.620	579.000
16.623	612.000
16.626	618.000
16.629	610.000
16.633	564.000
16.636	563.000
16.639	620.000
16.642	614.000
16.645	568.000
16.649	536.000
16.652	626.000
16.655	589.000
16.658	608.000
16.662	592.000
16.665	585.000
16.668	591.000
16.671	595.000
16.674	583.000
16.678	607.000
16.681	596.000
16.684	608.000
16.687	567.000
16.690	535.000
16.694	597.000
16.697	613.000
16.700	628.000
16.703	679.000
16.706	606.000
16.710	566.000
16.713	573.000
16.716	610.000
16.719	576.000
16.723	639.000
16.726	643.000
16.729	656.000
16.732	640.000
16.735	630.000
16.739	612.000
16.742	666.000
16.745	692.000
16.748	639.000
16.751	622.000
16.755	714.000
16.758	670.000
16.761	692.000
16.764	623.000
16.767	721.000
16.771	719.000
16.774	715.000
16.777	663.000
16.780	750.000
16.784	715.000
16.787	687.000
16.790	735.000
16.793	767.000
16.796	802.000
16.800	799.000
16.803	752.000
16.806	758.000
16.809	782.000
16.812	779.000
16.816	805.000
16.819	835.000
16.822	869.000
16.825	872.000
16.828	882.000
16.832	949.000
16.835	961.000
16.838	898.000
16.841	921.000
16.845	1029.000
16.848	995.000
16.851	1014.000
16.854	1017.000
16.857	1198.000
16.861	1122.000
16.864	1089.000
16.867	1158.000
16.870	1250.000
16.873	1205.000
16.877	1199.000
16.880	1338.000
16.883	1374.000
16.886	1394.000
16.890	1420.000
16.893	1349.000
16.896	1573.000
16.899	1484.000
16.902	1552.000
16.906	1558.000
16.909	1721.000
16.912	1754.000
16.915	1718.000
16.918	1638.000
16.922	1948.000
16.925	1889.000
16.928	1990.000
16.931	1956.000
16.934	2129.000
16.938	2186.000
16.941	2239.000
16.944	2261.000
16.947	2393.000
16.951	2389.000
16.954	2370.000
16.957	2374.000
16.960	2566.000
16.963	2683.000
16.967	2519.000
16.970	2638.000
16.973	2863.000
16.976	2847.000
16.979	2890.000
16.983	2902.000
16.986	3113.000
16.989	3036.000
16.992	3035.000
16.995	2992.000
16.999	3438.000
17.002	3248.000
17.005	3268.000
17.008	3309.000
17.012	3411.000
17.015	3368.000
17.018	3370.000
17.021	3240.000
17.024	3645.000
17.028	3545.000
17.031	3528.000
17.034	3590.000
17.037	3722.000
17.040	3655.000
17.044	3613.000
17.047	3555.000
17.050	3821.000
17.053	3840.000
17.056	3747.000
17.060	3691.000
17.063	3920.000
17.066	3768.000
17.069	3791.000
17.073	3656.000
17.076	3787.000
17.079	3899.000
17.082	3697.000
17.085	3662.000
17.089	3808.000
17.092	3857.000
17.095	3593.000
17.098	3536.000
17.101	3601.000
17.105	3667.000
17.108	3489.000
17.111	3487.000
17.114	3588.000
17.117	3663.000
17.121	3284.000
17.124	3191.000
17.127	3329.000
17.130	3365.000
17.134	3187.000
17.137	3087.000
17.140	3104.000
17.143	3128.000
17.146	2981.000
17.150	2958.000
17.153	2810.000
17.156	3169.000
17.159	2718.000
17.162	2769.000
17.166	2668.000
17.169	2693.000
17.172	2454.000
17.175	2404.000
17.178	2519.000
17.182	2325.000
17.185	2261.000
17.188	2201.000
17.191	2103.000
17.195	2213.000
17.198	1990.000
17.201	1949.000
17.204	1935.000
17.207	2008.000
17.211	1870.000
17.214	1807.000
17.217	1738.000
17.220	1767.000
17.223	1600.000
17.227	1557.000
17.230	1553.000
17.233	1525.000
17.236	1460.000
17.240	1439.000
17.243	1367.000
17.246	1417.000
17.249	1172.000
17.252	1209.000
17.256	1227.000
17.259	1232.000
17.262	1191.000
17.265	1050.000
17.268	1052.000
17.272	1080.000
17.275	918.000
17.278	926.000
17.281	965.000
17.284	972.000
17.288	857.000
17.291	871.000
17.294	919.000
17.297	874.000
17.301	852.000
17.304	810.000
17.307	775.000
17.310	832.000
17.313	773.000
17.317	746.000
17.320	788.000
17.323	733.000
17.326	668.000
17.329	658.000
17.333	720.000
17.336	690.000
17.339	663.000
17.342	639.000
17.345	662.000
17.349	615.000
17.352	637.000
17.355	575.000
17.358	631.000
17.362	634.000
17.365	635.000
17.368	632.000
17.371	642.000
17.374	653.000
17.378	583.000
17.381	623.000
17.384	572.000
17.387	608.000
17.390	613.000
17.394	562.000
17.397	571.000
17.400	608.000
17.403	595.000
17.406	532.000
17.410	660.000
17.413	614.000
17.416	556.000
17.419	592.000
17.423	589.000
17.426	572.000
17.429	555.000
17.432	540.000
17.435	559.000
17.439	571.000
17.442	553.000
17.445	585.000
17.448	604.000
17.451	601.000
17.455	571.000
17.458	548.000
17.461	595.000
17.464	524.000
17.467	582.000
17.471	503.000
17.474	532.000
17.477	585.000
17.480	567.000
17.484	533.000
17.487	568.000
17.490	575.000
17.493	580.000
17.496	570.000
17.500	542.000
17.503	561.000
17.506	543.000
17.509	546.000
17.512	577.000
17.516	584.000
17.519	556.000
17.522	548.000
17.525	580.000
17.528	561.000
17.532	473.000
17.535	536.000
17.538	535.000
17.541	583.000
17.545	535.000
17.548	563.000
17.551	530.000
17.554	544.000
17.557	540.000
17.561	526.000
17.564	570.000
17.567	553.000
17.570	543.000
17.573	492.000
17.577	564.000
17.580	618.000
17.583	548.000
17.586	520.000
17.589	576.000
17.593	531.000
17.596	577.000
17.599	545.000
17.602	533.000
17.606	540.000
17.609	501.000
17.612	519.000
17.615	553.000
17.618	558.000
17.622	560.000
17.625	553.000
17.628	556.000
17.631	532.000
17.634	509.000
17.638	519.000
17.641	556.000
17.644	555.000
17.647	558.000
17.651	536.000
17.654	566.000
17.657	532.000
17.660	552.000
17.663	483.000
17.667	546.000
17.670	546.000
17.673	525.000
17.676	536.000
17.679	559.000
17.683	549.000
17.686	541.000
17.689	515.000
17.692	523.000
17.695	564.000
17.699	545.000
17.702	498.000
17.705	549.000
17.708	600.000
17.712	503.000
17.715	557.000
17.718	563.000
17.721	576.000
17.724	535.000
17.728	544.000
17.731	545.000
17.734	552.000
17.737	531.000
17.740	532.000
17.744	558.000
17.747	527.000
17.750	488.000
17.753	526.000
17.756	515.000
17.760	574.000
17.763	536.000
17.766	568.000
17.769	539.000
17.773	505.000
17.776	523.000
17.779	503.000
17.782	508.000
17.785	568.000
17.789	497.000
17.792	553.000
17.795	526.000
17.798	545.000
17.801	549.000
17.805	546.000
17.808	580.000
17.811	515.000
17.814	531.000
17.817	524.000
17.821	538.000
17.824	516.000
17.827	502.000
17.830	507.000
17.834	553.000
17.837	523.000
17.840	520.000
17.843	523.000
17.846	578.000
17.850	510.000
17.853	540.000
17.856	480.000
17.859	541.000
17.862	561.000
17.866	500.000
17.869	499.000
17.872	555.000
17.875	541.000
17.878	498.000
17.882	551.000
17.885	585.000
17.888	502.000
17.891	508.000
17.895	521.000
17.898	570.000
17.901	537.000
17.904	517.000
17.907	529.000
17.911	535.000
17.914	511.000
17.917	537.000
17.920	507.000
17.923	559.000
17.927	516.000
17.930	558.000
17.933	549.000
17.936	546.000
17.939	532.000
17.943	533.000
17.946	492.000
17.949	516.000
17.952	538.000
17.956	508.000
17.959	495.000
17.962	524.000
17.965	532.000
17.968	510.000
17.972	510.000
17.975	536.000
17.978	500.000
17.981	491.000
17.984	529.000
17.988	532.000
17.991	568.000
17.994	501.000
17.997	471.000
18.001	580.000
18.004	535.000
18.007	492.000
18.010	469.000
18.013	522.000
18.017	492.000
18.020	484.000
18.023	520.000
18.026	494.000
18.029	518.000
18.033	454.000
18.036	489.000
18.039	551.000
18.042	534.000
18.045	502.000
18.049	500.000
18.052	478.000
18.055	506.000
18.058	514.000
18.062	519.000
18.065	525.000
18.068	557.000
18.071	544.000
18.074	488.000
18.078	473.000
18.081	484.000
18.084	505.000
18.087	552.000
18.090	539.000
18.094	501.000
18.097	522.000
18.100	488.000
18.103	525.000
18.106	520.000
18.110	517.000
18.113	543.000
18.116	552.000
18.119	496.000
18.123	502.000
18.126	501.000
18.129	531.000
18.132	566.000
18.135	526.000
18.139	504.000
18.142	565.000
18.145	532.000
18.148	530.000
18.151	497.000
18.155	515.000
18.158	506.000
18.161	488.000
18.164	502.000
18.167	480.000
18.171	523.000
18.174	479.000
18.177	523.000
18.180	540.000
18.184	505.000
18.187	504.000
18.190	447.000
18.193	565.000
18.196	503.000
18.200	483.000
18.203	518.000
18.206	547.000
18.209	561.000
18.212	488.000
18.216	523.000
18.219	546.000
18.222	490.000
18.225	491.000
18.228	464.000
18.232	509.000
18.235	494.000
18.238	474.000
18.241	491.000
18.245	510.000
18.248	508.000
18.251	474.000
18.254	503.000
18.257	507.000
18.261	547.000
18.264	528.000
18.267	530.000
18.270	535.000
18.273	503.000
18.277	494.000
18.280	497.000
18.283	464.000
18.286	569.000
18.289	520.000
18.293	481.000
18.296	543.000
18.299	532.000
18.302	522.000
18.306	491.000
18.309	474.000
18.312	547.000
18.315	485.000
18.318	504.000
18.322	459.000
18.325	486.000
18.328	454.000
18.331	500.000
18.334	526.000
18.338	514.000
18.341	483.000
18.344	496.000
18.347	542.000
18.351	529.000
18.354	438.000
18.357	459.000
18.360	535.000
18.363	518.000
18.367	492.000
18.370	504.000
18.373	492.000
18.376	497.000
18.379	505.000
18.383	475.000
18.386	498.000
18.389	536.000
18.392	519.000
18.395	468.000
18.399	526.000
18.402	515.000
18.405	525.000
18.408	437.000
18.412	456.000
18.415	507.000
18.418	476.000
18.421	513.000
18.424	490.000
18.428	483.000
18.431	469.000
18.434	489.000
18.437	464.000
18.440	474.000
18.444	477.000
18.447	506.000
18.450	508.000
18.453	518.000
18.456	462.000
18.460	466.000
18.463	485.000
18.466	478.000
18.469	486.000
18.473	469.000
18.476	541.000
18.479	469.000
18.482	513.000
18.485	475.000
18.489	496.000
18.492	497.000
18.495	491.000
18.498	488.000
18.501	469.000
18.505	504.000
18.508	461.000
18.511	457.000
18.514	524.000
18.517	476.000
18.521	486.000
18.524	495.000
18.527	490.000
18.530	495.000
18.534	439.000
18.537	485.000
18.540	486.000
18.543	529.000
18.546	508.000
18.550	459.000
18.553	496.000
18.556	487.000
18.559	428.000
18.562	469.000
18.566	462.000
18.569	468.000
18.572	496.000
18.575	435.000
18.578	468.000
18.582	515.000
18.585	504.000
18.588	471.000
18.591	536.000
18.595	494.000
18.598	450.000
18.601	468.000
18.604	485.000
18.607	519.000
18.611	489.000
18.614	453.000
18.617	463.000
18.620	497.000
18.623	480.000
18.627	489.000
18.630	486.000
18.633	479.000
18.636	508.000
18.639	480.000
18.643	496.000
18.646	474.000
18.649	488.000
18.652	462.000
18.656	536.000
18.659	468.000
18.662	455.000
18.665	458.000
18.668	492.000
18.672	498.000
18.675	449.000
18.678	497.000
18.681	520.000
18.684	517.000
18.688	457.000
18.691	461.000
18.694	518.000
18.697	450.000
18.701	453.000
18.704	482.000
18.707	491.000
18.710	509.000
18.713	452.000
18.717	437.000
18.720	492.000
18.723	498.000
18.726	468.000
18.729	467.000
18.733	510.000
18.736	474.000
18.739	478.000
18.742	445.000
18.745	476.000
18.749	445.000
18.752	495.000
18.755	500.000
18.758	493.000
18.762	494.000
18.765	465.000
18.768	443.000
18.771	507.000
18.774	477.000
18.778	479.000
18.781	507.000
18.784	524.000
18.787	493.000
18.790	445.000
18.794	430.000
18.797	476.000
18.800	500.000
18.803	445.000
18.806	492.000
18.810	545.000
18.813	472.000
18.816	512.000
18.819	464.000
18.823	488.000
18.826	511.000
18.829	485.000
18.832	465.000
18.835	518.000
18.839	496.000
18.842	512.000
18.845	452.000
18.848	473.000
18.851	481.000
18.855	476.000
18.858	487.000
18.861	517.000
18.864	503.000
18.867	482.000
18.871	472.000
18.874	535.000
18.877	524.000
18.880	510.000
18.884	479.000
18.887	515.000
18.890	528.000
18.893	519.000
18.896	502.000
18.900	533.000
18.903	501.000
18.906	495.000
18.909	519.000
18.912	571.000
18.916	529.000
18.919	521.000
18.922	488.000
18.925	553.000
18.928	569.000
18.932	516.000
18.935	517.000
18.938	548.000
18.941	590.000
18.945	531.000
18.948	543.000
18.951	580.000
18.954	581.000
18.957	563.000
18.961	567.000
18.964	606.000
18.967	598.000
18.970	589.000
18.973	568.000
18.977	653.000
18.980	643.000
18.983	636.000
18.986	673.000
18.989	701.000
18.993	679.000
18.996	708.000
18.999	649.000
19.002	699.000
19.006	763.000
19.009	643.000
19.012	753.000
19.015	802.000
19.018	821.000
19.022	788.000
19.025	777.000
19.028	810.000
19.031	805.000
19.034	787.000
19.038	837.000
19.041	836.000
19.044	864.000
19.047	864.000
19.051	871.000
19.054	914.000
19.057	885.000
19.060	927.000
19.063	968.000
19.067	955.000
19.070	1011.000
19.073	938.000
19.076	940.000
19.079	1030.000
19.083	1059.000
19.086	1036.000
19.089	961.000
19.092	1026.000
19.095	1031.000
19.099	1053.000
19.102	972.000
19.105	1064.000
19.108	1100.000
19.112	1031.000
19.115	994.000
19.118	1105.000
19.121	1082.000
19.124	1047.000
19.128	1023.000
19.131	1116.000
19.134	1111.000
19.137	1021.000
19.140	1108.000
19.144	1052.000
19.147	1035.000
19.150	1050.000
19.153	1064.000
19.156	1138.000
19.160	1137.000
19.163	1093.000
19.166	1105.000
19.169	1061.000
19.173	1072.000
19.176	977.000
19.179	967.000
19.182	1050.000
19.185	1105.000
19.189	1017.000
19.192	1074.000
19.195	1025.000
19.198	1091.000
19.201	943.000
19.205	976.000
19.208	1011.000
19.211	984.000
19.214	895.000
19.217	880.000
19.221	980.000
19.224	930.000
19.227	823.000
19.230	868.000
19.234	825.000
19.237	875.000
19.240	786.000
19.243	794.000
19.246	827.000
19.250	828.000
19.253	759.000
19.256	726.000
19.259	757.000
19.262	800.000
19.266	676.000
19.269	713.000
19.272	712.000
19.275	662.000
19.278	618.000
19.282	682.000
19.285	623.000
19.288	671.000
19.291	664.000
19.295	661.000
19.298	593.000
19.301	601.000
19.304	597.000
19.307	625.000
19.311	633.000
19.314	608.000
19.317	540.000
19.320	571.000
19.323	602.000
19.327	534.000
19.330	576.000
19.333	547.000
19.336	565.000
19.339	548.000
19.343	577.000
19.346	519.000
19.349	573.000
19.352	516.000
19.356	522.000
19.359	543.000
19.362	561.000
19.365	535.000
19.368	530.000
19.372	530.000
19.375	527.000
19.378	512.000
19.381	462.000
19.384	455.000
19.388	452.000
19.391	481.000
19.394	495.000
19.397	492.000
19.401	509.000
19.404	494.000
19.407	472.000
19.410	477.000
19.413	508.000
19.417	523.000
19.420	538.000
19.423	501.000
19.426	517.000
19.429	497.000
19.433	468.000
19.436	438.000
19.439	523.000
19.442	486.000
19.445	516.000
19.449	456.000
19.452	533.000
19.455	524.000
19.458	516.000
19.462	500.000
19.465	516.000
19.468	497.000
19.471	497.000
19.474	487.000
19.478	474.000
19.481	499.000
19.484	454.000
19.487	425.000
19.490	459.000
19.494	484.000
19.497	449.000
19.500	491.000
19.503	478.000
19.506	425.000
19.510	420.000
19.513	479.000
19.516	456.000
19.519	439.000
19.523	493.000
19.526	471.000
19.529	465.000
19.532	453.000
19.535	465.000
19.539	438.000
19.542	452.000
19.545	485.000
19.548	488.000
19.551	453.000
19.555	432.000
19.558	444.000
19.561	407.000
19.564	400.000
19.567	476.000
19.571	418.000
19.574	408.000
19.577	429.000
19.580	434.000
19.584	430.000
19.587	338.000
19.590	391.000
19.593	420.000
19.596	390.000
19.600	423.000
19.603	416.000
19.606	429.000
19.609	414.000
19.612	405.000
19.616	403.000
19.619	409.000
19.622	388.000
19.625	364.000
19.628	350.000
19.632	355.000
19.635	375.000
19.638	383.000
19.641	352.000
19.645	385.000
19.648	358.000
19.651	355.000
19.654	368.000
19.657	402.000
19.661	392.000
19.664	354.000
19.667	362.000
19.670	374.000
19.673	373.000
19.677	380.000
19.680	347.000
19.683	339.000
19.686	386.000
19.689	344.000
19.693	383.000
19.696	349.000
19.699	342.000
19.702	345.000
19.706	330.000
19.709	359.000
19.712	317.000
19.715	348.000
19.718	306.000
19.722	361.000
19.725	333.000
19.728	344.000
19.731	342.000
19.734	365.000
19.738	346.000
19.741	317.000
19.744	355.000
19.747	358.000
19.751	327.000
19.754	328.000
19.757	322.000
19.760	328.000
19.763	341.000
19.767	309.000
19.770	337.000
19.773	330.000
19.776	341.000
19.779	316.000
19.783	324.000
19.786	332.000
19.789	360.000
19.792	329.000
19.795	312.000
19.799	327.000
19.802	296.000
19.805	330.000
19.808	319.000
19.812	327.000
19.815	345.000
19.818	307.000
19.821	335.000
19.824	329.000
19.828	311.000
19.831	313.000
19.834	308.000
19.837	327.000
19.840	335.000
19.844	320.000
19.847	312.000
19.850	323.000
19.853	302.000
19.856	300.000
19.860	318.000
19.863	301.000
19.866	319.000
19.869	302.000
19.873	305.000
19.876	314.000
19.879	310.000
19.882	321.000
19.885	331.000
19.889	349.000
19.892	341.000
19.895	287.000
19.898	274.000
19.901	326.000
19.905	323.000
19.908	328.000
19.911	288.000
19.914	343.000
19.917	307.000
19.921	301.000
19.924	277.000
19.927	301.000
19.930	337.000
19.934	290.000
19.937	312.000
19.940	322.000
19.943	321.000
19.946	295.000
19.950	334.000
19.953	355.000
19.956	344.000
19.959	307.000
19.962	314.000
19.966	298.000
19.969	310.000
19.972	333.000
19.975	315.000
19.978	334.000
19.982	326.000
19.985	314.000
19.988	321.000
19.991	310.000
19.995	302.000
19.998	281.000
20.001	309.000
20.004	345.000
20.007	301.000
20.011	318.000
20.014	292.000
20.017	319.000
20.020	306.000
20.023	294.000
20.027	322.000
20.030	307.000
20.033	348.000
20.036	311.000
20.039	315.000
20.043	295.000
20.046	313.000
20.049	307.000
20.052	297.000
20.056	312.000
20.059	332.000
20.062	314.000
20.065	294.000
20.068	293.000
20.072	336.000
20.075	275.000
20.078	282.000
20.081	272.000
20.084	314.000
20.088	314.000
20.091	301.000
20.094	318.000
20.097	315.000
20.101	292.000
20.104	288.000
20.107	325.000
20.110	313.000
20.113	324.000
20.117	316.000
20.120	328.000
20.123	301.000
20.126	294.000
20.129	291.000
20.133	329.000
20.136	301.000
20.139	303.000
20.142	301.000
20.145	310.000
20.149	361.000
20.152	262.000
20.155	311.000
20.158	292.000
20.162	294.000
20.165	296.000
20.168	342.000
20.171	270.000
20.174	295.000
20.178	285.000
20.181	277.000
20.184	304.000
20.187	308.000
20.190	294.000
20.194	277.000
20.197	327.000
20.200	322.000
20.203	276.000
20.206	288.000
20.210	314.000
20.213	315.000
20.216	312.000
20.219	289.000
20.223	287.000
20.226	303.000
20.229	271.000
20.232	294.000
20.235	305.000
20.239	312.000
20.242	324.000
20.245	288.000
20.248	291.000
20.251	292.000
20.255	277.000
20.258	291.000
20.261	290.000
20.264	284.000
20.267	288.000
20.271	326.000
20.274	296.000
20.277	335.000
20.280	294.000
20.284	270.000
20.287	309.000
20.290	328.000
20.293	264.000
20.296	297.000
20.300	281.000
20.303	282.000
20.306	299.000
20.309	300.000
20.312	291.000
20.316	283.000
20.319	281.000
20.322	285.000
20.325	286.000
20.328	294.000
20.332	259.000
20.335	299.000
20.338	302.000
20.341	307.000
20.345	286.000
20.348	295.000
20.351	290.000
20.354	315.000
20.357	276.000
20.361	281.000
20.364	316.000
20.367	305.000
20.370	271.000
20.373	283.000
20.377	277.000
20.380	310.000
20.383	293.000
20.386	292.000
20.389	295.000
20.393	325.000
20.396	315.000
20.399	256.000
20.402	291.000
20.406	312.000
20.409	256.000
20.412	269.000
20.415	290.000
20.418	273.000
20.422	304.000
20.425	288.000
20.428	255.000
20.431	289.000
20.434	276.000
20.438	280.000
20.441	307.000
20.444	278.000
20.447	246.000
20.451	293.000
20.454	279.000
20.457	272.000
20.460	272.000
20.463	294.000
20.467	294.000
20.470	257.000
20.473	293.000
20.476	283.000
20.479	292.000
20.483	307.000
20.486	259.000
20.489	265.000
20.492	306.000
20.495	279.000
20.499	285.000
20.502	260.000
20.505	297.000
20.508	308.000
20.512	276.000
20.515	268.000
20.518	284.000
20.521	296.000
20.524	281.000
20.528	284.000
20.531	304.000
20.534	306.000
20.537	248.000
20.540	286.000
20.544	282.000
20.547	272.000
20.550	270.000
20.553	282.000
20.556	296.000
20.560	308.000
20.563	297.000
20.566	256.000
20.569	288.000
20.573	289.000
20.576	310.000
20.579	285.000
20.582	283.000
20.585	278.000
20.589	280.000
20.592	270.000
20.595	319.000
20.598	263.000
20.601	259.000
20.605	287.000
20.608	280.000
20.611	268.000
20.614	255.000
20.617	231.000
20.621	265.000
20.624	266.000
20.627	259.000
20.630	260.000
20.634	274.000
20.637	267.000
20.640	255.000
20.643	281.000
20.646	288.000
20.650	281.000
20.653	264.000
20.656	275.000
20.659	286.000
20.662	272.000
20.666	262.000
20.669	252.000
20.672	258.000
20.675	274.000
20.678	240.000
20.682	266.000
20.685	328.000
20.688	260.000
20.691	286.000
20.695	250.000
20.698	260.000
20.701	264.000
20.704	289.000
20.707	282.000
20.711	267.000
20.714	286.000
20.717	253.000
20.720	261.000
20.723	276.000
20.727	277.000
20.730	257.000
20.733	245.000
20.736	249.000
20.739	283.000
20.743	271.000
20.746	239.000
20.749	265.000
20.752	266.000
20.756	248.000
20.759	227.000
20.762	284.000
20.765	268.000
20.768	237.000
20.772	244.000
20.775	249.000
20.778	252.000
20.781	238.000
20.784	258.000
20.788	280.000
20.791	251.000
20.794	205.000
20.797	254.000
20.800	275.000
20.804	284.000
20.807	238.000
20.810	257.000
20.813	288.000
20.817	234.000
20.820	228.000
20.823	229.000
20.826	247.000
20.829	277.000
20.833	230.000
20.836	231.000
20.839	256.000
20.842	265.000
20.845	240.000
20.849	246.000
20.852	252.000
20.855	266.000
20.858	266.000
20.862	227.000
20.865	293.000
20.868	272.000
20.871	207.000
20.874	251.000
20.878	233.000
20.881	252.000
20.884	254.000
20.887	247.000
20.890	238.000
20.894	211.000
20.897	220.000
20.900	257.000
20.903	250.000
20.906	239.000
20.910	232.000
20.913	244.000
20.916	265.000
20.919	254.000
20.923	220.000
20.926	221.000
20.929	246.000
20.932	231.000
20.935	245.000
20.939	264.000
20.942	256.000
20.945	248.000
20.948	246.000
20.951	252.000
20.955	261.000
20.958	232.000
20.961	217.000
20.964	243.000
20.967	260.000
20.971	269.000
20.974	225.000
20.977	228.000
20.980	257.000
20.984	257.000
20.987	233.000
20.990	258.000
20.993	257.000
20.996	240.000
21.000	257.000
21.003	225.000
21.006	245.000
21.009	224.000
21.012	259.000
21.016	212.000
21.019	218.000
21.022	236.000
21.025	204.000
21.028	215.000
21.032	244.000
21.035	261.000
21.038	246.000
21.041	224.000
21.045	239.000
21.048	233.000
21.051	243.000
21.054	240.000
21.057	236.000
21.061	222.000
21.064	229.000
21.067	204.000
21.070	225.000
21.073	273.000
21.077	215.000
21.080	215.000
21.083	235.000
21.086	233.000
21.089	231.000
21.093	242.000
21.096	237.000
21.099	241.000
21.102	204.000
21.106	220.000
21.109	255.000
21.112	229.000
21.115	264.000
21.118	213.000
21.122	226.000
21.125	242.000
21.128	241.000
21.131	200.000
21.134	233.000
21.138	218.000
21.141	207.000
21.144	236.000
21.147	242.000
21.150	226.000
21.154	221.000
21.157	204.000
21.160	244.000
21.163	234.000
21.167	231.000
21.170	226.000
21.173	233.000
21.176	232.000
21.179	206.000
21.183	223.000
21.186	178.000
21.189	233.000
21.192	218.000
21.195	208.000
21.199	241.000
21.202	255.000
21.205	168.000
21.208	211.000
21.212	237.000
21.215	248.000
21.218	226.000
21.221	212.000
21.224	225.000
21.228	236.000
21.231	243.000
21.234	228.000
21.237	206.000
21.240	194.000
21.244	185.000
21.247	225.000
21.250	244.000
21.253	203.000
21.256	191.000
21.260	205.000
21.263	198.000
21.266	216.000
21.269	214.000
21.273	207.000
21.276	189.000
21.279	237.000
21.282	223.000
21.285	220.000
21.289	211.000
21.292	220.000
21.295	201.000
21.298	199.000
21.301	198.000
21.305	208.000
21.308	200.000
21.311	212.000
21.314	212.000
21.317	207.000
21.321	228.000
21.324	222.000
21.327	212.000
21.330	218.000
21.334	204.000
21.337	189.000
21.340	201.000
21.343	206.000
21.346	204.000
21.350	204.000
21.353	236.000
21.356	206.000
21.359	190.000
21.362	223.000
21.366	205.000
21.369	230.000
21.372	195.000
21.375	196.000
21.378	212.000
21.382	204.000
21.385	238.000
21.388	189.000
21.391	215.000
21.395	187.000
21.398	212.000
21.401	202.000
21.404	202.000
21.407	216.000
21.411	198.000
21.414	183.000
21.417	216.000
21.420	213.000
21.423	198.000
21.427	215.000
21.430	195.000
21.433	224.000
21.436	195.000
21.439	199.000
21.443	201.000
21.446	201.000
21.449	206.000
21.452	208.000
21.456	216.000
21.459	187.000
21.462	193.000
21.465	192.000
21.468	201.000
21.472	204.000
21.475	218.000
21.478	205.000
21.481	194.000
21.484	226.000
21.488	209.000
21.491	194.000
21.494	209.000
21.497	215.000
21.500	218.000
21.504	217.000
21.507	184.000
21.510	210.000
21.513	216.000
21.517	176.000
21.520	195.000
21.523	207.000
21.526	184.000
21.529	191.000
21.533	194.000
21.536	228.000
21.539	196.000
21.542	192.000
21.545	203.000
21.549	227.000
21.552	192.000
21.555	209.000
21.558	198.000
21.562	179.000
21.565	200.000
21.568	215.000
21.571	227.000
21.574	178.000
21.578	172.000
21.581	216.000
21.584	260.000
21.587	208.000
21.590	215.000
21.594	179.000
21.597	213.000
21.600	224.000
21.603	195.000
21.606	176.000
21.610	175.000
21.613	194.000
21.616	206.000
21.619	174.000
21.623	209.000
21.626	198.000
21.629	175.000
21.632	196.000
21.635	218.000
21.639	210.000
21.642	173.000
21.645	168.000
21.648	173.000
21.651	189.000
21.655	163.000
21.658	183.000
21.661	187.000
21.664	203.000
21.667	186.000
21.671	222.000
21.674	174.000
21.677	212.000
21.680	194.000
21.684	194.000
21.687	192.000
21.690	214.000
21.693	184.000
21.696	181.000
21.700	189.000
21.703	204.000
21.706	171.000
21.709	201.000
21.712	199.000
21.716	193.000
21.719	192.000
21.722	152.000
21.725	198.000
21.728	212.000
21.732	161.000
21.735	161.000
21.738	199.000
21.741	159.000
21.745	144.000
21.748	182.000
21.751	175.000
21.754	196.000
21.757	150.000
21.761	197.000
21.764	173.000
21.767	161.000
21.770	161.000
21.773	164.000
21.777	185.000
21.780	183.000
21.783	170.000
21.786	179.000
21.789	203.000
21.793	191.000
21.796	166.000
21.799	162.000
21.802	166.000
21.806	175.000
21.809	159.000
21.812	175.000
21.815	173.000
21.818	192.000
21.822	165.000
21.825	162.000
21.828	177.000
21.831	144.000
21.834	134.000
21.838	161.000
21.841	157.000
21.844	163.000
21.847	158.000
21.850	168.000
21.854	142.000
21.857	170.000
21.860	153.000
21.863	157.000
21.867	159.000
21.870	184.000
21.873	165.000
21.876	180.000
21.879	173.000
21.883	181.000
21.886	153.000
21.889	142.000
21.892	191.000
21.895	168.000
21.899	160.000
21.902	147.000
21.905	138.000
21.908	182.000
21.912	146.000
21.915	156.000
21.918	167.000
21.921	169.000
21.924	144.000
21.928	163.000
21.931	184.000
21.934	166.000
21.937	142.000
21.940	158.000
21.944	180.000
21.947	176.000
21.950	141.000
21.953	157.000
21.956	142.000
21.960	179.000
21.963	154.000
21.966	170.000
21.969	166.000
21.973	162.000
21.976	149.000
21.979	122.000
21.982	148.000
21.985	156.000
21.989	140.000
21.992	137.000
21.995	126.000
21.998	163.000
22.001	0.001
22.005	0.002
22.008	0.002
22.011	0.001
22.014	0.002
22.017	0.001
22.021	0.001
22.024	0.001
22.027	0.001
22.030	0.001
22.034	0.001
22.037	0.001
22.040	0.001
22.043	0.001
22.046	0.001
22.050	0.001
22.053	0.001
22.056	0.001
22.059	0.001
22.062	0.001
22.066	0.001
22.069	0.001
22.072	0.001
22.075	0.001
22.078	0.001
22.082	0.001
22.085	0.001
22.088	0.001
22.091	0.001
22.095	0.001
22.098	0.001
22.101	0.001
22.104	0.001
22.107	0.001
22.111	0.001
22.114	0.001
22.117	0.001
22.120	0.001
22.123	0.001
22.127	0.001
22.130	0.001
22.133	0.001
22.136	0.001
22.139	0.001
22.143	0.001
22.146	0.001
22.149	0.001
22.152	0.001
22.156	0.001
22.159	0.001
22.162	0.001
22.165	0.001
22.168	0.001
22.172	0.001
22.175	0.001
22.178	0.001
22.181	0.000
22.184	0.001
22.188	0.001
22.191	0.001
22.194	0.000
22.197	0.001
22.200	0.000
22.204	0.000
22.207	0.000
22.210	0.000
22.213	0.000
22.217	0.000
22.220	0.000
22.223	0.000
22.226	0.000
22.229	0.000
22.233	0.000
22.236	0.000
22.239	0.000
22.242	0.000
22.245	0.000
22.249	0.000
22.252	0.000
22.255	0.000
22.258	0.000
22.262	0.000
22.265	0.000
22.268	0.000
22.271	0.000
22.274	0.000
22.278	0.000
22.281	0.000
22.284	0.000
22.287	0.000
22.290	0.000
22.294	0.000
22.297	0.000
22.300	0.000
22.303	0.000
22.306	0.000
22.310	0.000
22.313	0.000
22.316	0.000
22.319	0.000
22.323	0.000
22.326	0.000
22.329	0.000
22.332	0.000
22.335	0.000
22.339	0.000
22.342	0.000
22.345	0.000
22.348	0.000
22.351	0.000
22.355	0.000
22.358	0.000
22.361	0.000
22.364	0.000
22.367	0.000
22.371	0.000
22.374	0.000
22.377	0.000
22.380	0.000
22.384	0.000
22.387	0.000
22.390	0.000
22.393	0.000
22.396	0.000
22.400	0.000
22.403	0.000
22.406	0.000
22.409	0.000
22.412	0.000
22.416	0.000
22.419	0.000
22.422	0.000
22.425	0.000
22.428	0.000
22.432	0.000
22.435	0.000
22.438	0.000
22.441	0.000
22.445	0.000
22.448	0.000
22.451	0.000
22.454	0.000
22.457	0.000
22.461	0.000
22.464	0.000
22.467	0.000
22.470	0.000
22.473	0.000
22.477	0.000
22.480	0.000
22.483	0.000
22.486	0.000
22.489	0.000
22.493	0.000
22.496	0.000
22.499	0.000
22.502	0.000
22.506	0.000
22.509	0.000
22.512	0.000
22.515	0.000
22.518	0.000
22.522	0.000
22.525	0.000
22.528	0.000
22.531	0.000
22.534	0.000
22.538	0.000
22.541	0.000
22.544	0.000
22.547	0.000
22.550	0.000
22.554	0.000
22.557	0.000
22.560	0.000
22.563	0.000
22.567	0.000
22.570	0.000
22.573	0.000
22.576	0.000
22.579	0.000
22.583	0.000
22.586	0.000
22.589	0.000
22.592	0.000
22.595	0.000
22.599	0.000
22.602	0.000
22.605	0.000
22.608	0.000
22.612	0.000
22.615	0.000
22.618	0.000
22.621	0.000
22.624	0.000
22.628	0.000
22.631	0.000
22.634	0.000
22.637	0.000
22.640	0.000
22.644	0.000
22.647	0.000
22.650	0.000
22.653	0.000
22.656	0.000
22.660	0.000
22.663	0.000
22.666	0.000
22.669	0.000
22.673	0.000
22.676	0.000
22.679	0.000
22.682	0.000
22.685	0.000
22.689	0.000
22.692	0.000
22.695	0.000
22.698	0.000
22.701	0.000
22.705	0.000
22.708	0.000
22.711	0.000
22.714	0.000
22.717	0.000
22.721	0.000
22.724	0.000
22.727	0.000
22.730	0.000
22.734	0.000
22.737	0.000
22.740	0.000
22.743	0.000
22.746	0.000
22.750	0.000
22.753	0.000
22.756	0.000
22.759	0.000
22.762	0.000
22.766	0.000
22.769	0.000
22.772	0.000
22.775	0.000
22.778	0.000
22.782	0.000
22.785	0.000
22.788	0.000
22.791	0.000
22.795	0.000
22.798	0.000
22.801	0.000
22.804	0.000
22.807	0.000
22.811	0.000
22.814	0.000
22.817	0.000
22.820	0.000
22.823	0.000
22.827	0.000
22.830	0.000
22.833	0.000
22.836	0.000
22.839	0.000
22.843	0.000
22.846	0.000
22.849	0.000
22.852	0.000
22.856	0.000
22.859	0.000
22.862	0.000
22.865	0.000
22.868	0.000
22.872	0.000
22.875	0.000
22.878	0.000
22.881	0.000
22.884	0.000
22.888	0.000
22.891	0.000
22.894	0.000
22.897	0.000
22.900	0.000
22.904	0.000
22.907	0.000
22.910	0.000
22.913	0.000
22.917	0.000
22.920	0.000
22.923	0.000
22.926	0.000
22.929	0.000
22.933	0.000
22.936	0.000
22.939	0.000
22.942	0.000
22.945	0.000
22.949	0.000
22.952	0.000
22.955	0.000
22.958	0.000
22.962	0.000
22.965	0.000
22.968	0.000
22.971	0.000
22.974	0.000
22.978	0.000
22.981	0.000
22.984	0.000
22.987	0.000
22.990	0.000
22.994	0.000
22.997	0.000
23.000	0.000
23.003	0.000
23.006	0.000
23.010	0.000
23.013	0.000
23.016	0.000
23.019	0.000
23.023	0.000
23.026	0.000
23.029	0.000
23.032	0.000
23.035	0.000
23.039	0.000
23.042	0.000
23.045	0.000
23.048	0.000
23.051	0.000
23.055	0.000
23.058	0.000
23.061	0.000
23.064	0.000
23.067	0.000
23.071	0.000
23.074	0.000
23.077	0.000
23.080	0.000
23.084	0.000
23.087	0.000
23.090	0.000
23.093	0.000
23.096	0.000
23.100	0.000
23.103	0.000
23.106	0.000
23.109	0.000
23.112	0.000
23.116	0.000
23.119	0.000
23.122	0.000
23.125	0.000
23.128	0.000
23.132	0.000
23.135	0.000
23.138	0.000
23.141	0.000
23.145	0.000
23.148	0.000
23.151	0.000
23.154	0.000
23.157	0.000
23.161	0.000
23.164	0.000
23.167	0.000
23.170	0.000
23.173	0.000
23.177	0.000
23.180	0.000
23.183	0.000
23.186	0.000
23.189	0.000
23.193	0.000
23.196	0.000
23.199	0.000
23.202	0.000
23.206	0.000
23.209	0.000
23.212	0.000
23.215	0.000
23.218	0.000
23.222	0.000
23.225	0.000
23.228	0.000
23.231	0.000
23.234	0.000
23.238	0.000
23.241	0.000
23.244	0.000
23.247	0.000
23.250	0.000
23.254	0.000
23.257	0.000
23.260	0.000
23.263	0.000
23.267	0.000
23.270	0.000
23.273	0.000
23.276	0.000
23.279	0.000
23.283	0.000
23.286	0.000
23.289	0.000
23.292	0.000
23.295	0.000
23.299	0.000
23.302	0.000
23.305	0.000
23.308	0.000
23.312	0.000
23.315	0.000
23.318	0.000
23.321	0.000
23.324	0.000
23.328	0.000
23.331	0.000
23.334	0.000
23.337	0.000
23.340	0.000
23.344	0.000
23.347	0.000
23.350	0.000
23.353	0.000
23.356	0.000
23.360	0.000
23.363	0.000
23.366	0.000
23.369	0.000
23.373	0.000
23.376	0.000
23.379	0.000
23.382	0.000
23.385	0.000
23.389	0.000
23.392	0.000
23.395	0.000
23.398	0.000
23.401	0.000
23.405	0.000
23.408	0.000
23.411	0.000
23.414	0.000
23.417	0.000
23.421	0.000
23.424	0.000
23.427	0.000
23.430	0.000
23.434	0.000
23.437	0.000
23.440	0.000
23.443	0.000
23.446	0.000
23.450	0.000
23.453	0.000
23.456	0.000
23.459	0.000
23.462	0.000
23.466	0.000
23.469	0.000
23.472	0.000
23.475	0.000
23.478	0.000
23.482	0.000
23.485	0.000
23.488	0.000
23.491	0.000
23.495	0.000
23.498	0.000
23.501	0.000
23.504	0.000
23.507	0.000
23.511	0.000
23.514	0.000
23.517	0.000
23.520	0.000
23.523	0.000
23.527	0.000
23.530	0.000
23.533	0.000
23.536	0.000
23.539	0.000
23.543	0.000
23.546	0.000
23.549	0.000
23.552	0.000
23.556	0.000
23.559	0.000
23.562	0.000
23.565	0.000
23.568	0.000
23.572	0.000
23.575	0.000
23.578	0.000
23.581	0.000
23.584	0.000
23.588	0.000
23.591	0.000
23.594	0.000
23.597	0.000
23.600	0.000
23.604	0.000
23.607	0.000
23.610	0.000
23.613	0.000
23.617	0.000
23.620	0.000
23.623	0.000
23.626	0.000
23.629	0.000
23.633	0.000
23.636	0.000
23.639	0.000
23.642	0.000
23.645	0.000
23.649	0.000
23.652	0.000
23.655	0.000
23.658	0.000
23.662	0.000
23.665	0.000
23.668	0.000
23.671	0.000
23.674	0.000
23.678	0.000
23.681	0.000
23.684	0.000
23.687	0.000
23.690	0.000
23.694	0.000
23.697	0.000
23.700	0.000
23.703	0.000
23.706	0.000
23.710	0.000
23.713	0.000
23.716	0.000
23.719	0.000
23.723	0.000
23.726	0.000
23.729	0.000
23.732	0.000
23.735	0.000
23.739	0.000
23.742	0.000
23.745	0.000
23.748	0.000
23.751	0.000
23.755	0.000
23.758	0.000
23.761	0.000
23.764	0.000
23.767	0.000
23.771	0.000
23.774	0.000
23.777	0.000
23.780	0.000
23.784	0.000
23.787	0.000
23.790	0.000
23.793	0.000
23.796	0.000
23.800	0.000
23.803	0.000
23.806	0.000
23.809	0.000
23.812	0.000
23.816	0.000
23.819	0.000
23.822	0.000
23.825	0.000
23.828	0.000
23.832	0.000
23.835	0.000
23.838	0.000
23.841	0.000
23.845	0.000
23.848	0.000
23.851	0.000
23.854	0.000
23.857	0.000
23.861	0.000
23.864	0.000
23.867	0.000
23.870	0.000
23.873	0.000
23.877	0.000
23.880	0.000
23.883	0.000
23.886	0.000
23.889	0.000
23.893	0.000
23.896	0.000
23.899	0.000
23.902	0.000
23.906	0.000
23.909	0.000
23.912	0.000
23.915	0.000
23.918	0.000
23.922	0.000
23.925	0.000
23.928	0.000
23.931	0.000
23.934	0.000
23.938	0.000
23.941	0.000
23.944	0.000
23.947	0.000
23.950	0.000
23.954	0.000
23.957	0.000
23.960	0.000
23.963	0.000
23.967	0.000
23.970	0.000
23.973	0.000
23.976	0.000
23.979	0.000
23.983	0.000
23.986	0.000
23.989	0.000
23.992	0.000
23.995	0.000
23.999	0.000
24.002	0.000
24.005	0.000
24.008	0.000
24.011	0.000
24.015	0.000
24.018	0.000
24.021	0.000
24.024	0.000
24.028	0.000
24.031	0.000
24.034	0.000
24.037	0.000
24.040	0.000
24.044	0.000
24.047	0.000
24.050	0.000
24.053	0.000
24.056	0.000
24.060	0.000
24.063	0.000
24.066	0.000
24.069	0.000
24.073	0.000
24.076	0.000
24.079	0.000
24.082	0.000
24.085	0.000
24.089	0.000
24.092	0.000
24.095	0.000
24.098	0.000
24.101	0.000
24.105	0.000
24.108	0.000
24.111	0.000
24.114	0.000
24.117	0.000
24.121	0.000
24.124	0.000
24.127	0.000
24.130	0.000
24.134	0.000
24.137	0.000
24.140	0.000
24.143	0.000
24.146	0.000
24.150	0.000
24.153	0.000
24.156	0.000
24.159	0.000
24.162	0.000
24.166	0.000
24.169	0.000
24.172	0.000
24.175	0.000
24.178	0.000
24.182	0.000
24.185	0.000
24.188	0.000
24.191	0.000
24.195	0.000
24.198	0.000
24.201	0.000
24.204	0.000
24.207	0.000
24.211	0.000
24.214	0.000
24.217	0.000
24.220	0.000
24.223	0.000
24.227	0.000
24.230	0.000
24.233	0.000
24.236	0.000
24.239	0.000
24.243	0.000
24.246	0.000
24.249	0.000
24.252	0.000
24.256	0.000
24.259	0.000
24.262	0.000
24.265	0.000
24.268	0.000
24.272	0.000
24.275	0.000
24.278	0.000
24.281	0.000
24.284	0.000
24.288	0.000
24.291	0.000
24.294	0.000
24.297	0.000
24.300	0.000
24.304	0.000
24.307	0.000
24.310	0.000
24.313	0.000
24.317	0.000
24.320	0.000
24.323	0.000
24.326	0.000
24.329	0.000
24.333	0.000
24.336	0.000
24.339	0.000
24.342	0.000
24.345	0.000
24.349	0.000
24.352	0.000
24.355	0.000
24.358	0.000
24.361	0.000
24.365	0.000
24.368	0.000
24.371	0.000
24.374	0.000
24.378	0.000
24.381	0.000
24.384	0.000
24.387	0.000
24.390	0.000
24.394	0.000
24.397	0.000
24.400	0.000
24.403	0.000
24.406	0.000
24.410	0.000
24.413	0.000
24.416	0.000
24.419	0.000
24.423	0.000
24.426	0.000
24.429	0.000
24.432	0.000
24.435	0.000
24.439	0.000
24.442	0.000
24.445	0.000
24.448	0.000
24.451	0.000
24.455	0.000
24.458	0.000
24.461	0.000
24.464	0.000
24.467	0.000
24.471	0.000
24.474	0.000
24.477	0.000
24.480	0.000
24.484	0.000
24.487	0.000
24.490	0.000
24.493	0.000
24.496	0.000
24.500	0.000
24.503	0.000
24.506	0.000
24.509	0.000
24.512	0.000
24.516	0.000
24.519	0.000
24.522	0.000
24.525	0.000
24.528	0.000
24.532	0.000
24.535	0.000
24.538	0.000
24.541	0.000
24.545	0.000
24.548	0.000
24.551	0.000
24.554	0.000
24.557	0.000
24.561	0.000
24.564	0.000
24.567	0.000
24.570	0.000
24.573	0.000
24.577	0.000
24.580	0.000
24.583	0.000
24.586	0.000
24.589	0.000
24.593	0.000
24.596	0.000
24.599	0.000
24.602	0.000
24.606	0.000
24.609	0.000
24.612	0.000
24.615	0.000
24.618	0.000
24.622	0.000
24.625	0.000
24.628	0.000
24.631	0.000
24.634	0.000
24.638	0.000
24.641	0.000
24.644	0.000
24.647	0.000
24.650	0.000
24.654	0.000
24.657	0.000
24.660	0.000
24.663	0.000
24.667	0.000
24.670	0.000
24.673	0.000
24.676	0.000
24.679	0.000
24.683	0.000
24.686	0.000
24.689	0.000
24.692	0.000
24.695	0.000
24.699	0.000
24.702	0.000
24.705	0.000
24.708	0.000
24.711	0.000
24.715	0.000
24.718	0.000
24.721	0.000
24.724	0.000
24.728	0.000
24.731	0.000
24.734	0.000
24.737	0.000
24.740	0.000
24.744	0.000
24.747	0.000
24.750	0.000
24.753	0.000
24.756	0.000
24.760	0.000
24.763	0.000
24.766	0.000
24.769	0.000
24.773	0.000
24.776	0.000
24.779	0.000
24.782	0.000
24.785	0.000
24.789	0.000
24.792	0.000
24.795	0.000
24.798	0.000
24.801	0.000
24.805	0.000
24.808	0.000
24.811	0.000
24.814	0.000
24.817	0.000
24.821	0.000
24.824	0.000
24.827	0.000
24.830	0.000
24.834	0.000
24.837	0.000
24.840	0.000
24.843	0.000
24.846	0.000
24.850	0.000
24.853	0.000
24.856	0.000
24.859	0.000
24.862	0.000
24.866	0.000
24.869	0.000
24.872	0.000
24.875	0.000
24.878	0.000
24.882	0.000
24.885	0.000
24.888	0.000
24.891	0.000
24.895	0.000
24.898	0.000
24.901	0.000
24.904	0.000
24.907	0.000
24.911	0.000
24.914	0.000
24.917	0.000
24.920	0.000
24.923	0.000
24.927	0.000
24.930	0.000
24.933	0.000
24.936	0.000
24.939	0.000
24.943	0.000
24.946	0.000
24.949	0.000
24.952	0.000
24.956	0.000
24.959	0.000
24.962	0.000
24.965	0.000
24.968	0.000
24.972	0.000
24.975	0.000
24.978	0.000
24.981	0.000
24.984	0.000
24.988	0.000
24.991	0.000
24.994	0.000
24.997	0.000
25.000	0.000
25.004	0.000
25.007	0.000
25.010	0.000
25.013	0.000
25.017	0.000
25.020	0.000
25.023	0.000
25.026	0.000
25.029	0.000
25.033	0.000
25.036	0.000
25.039	0.000
25.042	0.000
25.045	0.000
25.049	0.000
25.052	0.000
25.055	0.000
25.058	0.000
25.061	0.000
25.065	0.000
25.068	0.000
25.071	0.000
25.074	0.000
25.078	0.000
25.081	0.000
25.084	0.000
25.087	0.000
25.090	0.000
25.094	0.000
25.097	0.000
25.100	0.000
25.103	0.000
25.106	0.000
25.110	0.000
25.113	0.000
25.116	0.000
25.119	0.000
25.123	0.000
25.126	0.000
25.129	0.000
25.132	0.000
25.135	0.000
25.139	0.000
25.142	0.000
25.145	0.000
25.148	0.000
25.151	0.000
25.155	0.000
25.158	0.000
25.161	0.000
25.164	0.000
25.167	0.000
25.171	0.000
25.174	0.000
25.177	0.000
25.180	0.000
25.184	0.000
25.187	0.000
25.190	0.000
25.193	0.000
25.196	0.000
25.200	0.000
25.203	0.000
25.206	0.000
25.209	0.000
25.212	0.000
25.216	0.000
25.219	0.000
25.222	0.000
25.225	0.000
25.228	0.000
25.232	0.000
25.235	0.000
25.238	0.000
25.241	0.000
25.245	0.000
25.248	0.000
25.251	0.000
25.254	0.000
25.257	0.000
25.261	0.000
25.264	0.000
25.267	0.000
25.270	0.000
25.273	0.000
25.277	0.000
25.280	0.000
25.283	0.000
25.286	0.000
25.289	0.000
25.293	0.000
25.296	0.000
25.299	0.000
25.302	0.000
25.306	0.000
25.309	0.000
25.312	0.000
25.315	0.000
25.318	0.000
25.322	0.000
25.325	0.000
25.328	0.000
25.331	0.000
25.334	0.000
25.338	0.000
25.341	0.000
25.344	0.000
25.347	0.000
25.350	0.000
25.354	0.000
25.357	0.000
25.360	0.000
25.363	0.000
25.367	0.000
25.370	0.000
25.373	0.000
25.376	0.000
25.379	0.000
25.383	0.000
25.386	0.000
25.389	0.000
25.392	0.000
25.395	0.000
25.399	0.000
25.402	0.000
25.405	0.000
25.408	0.000
25.411	0.000
25.415	0.000
25.418	0.000
25.421	0.000
25.424	0.000
25.428	0.000
25.431	0.000
25.434	0.000
25.437	0.000
25.440	0.000
25.444	0.000
25.447	0.000
25.450	0.000
25.453	0.000
25.456	0.000
25.460	0.000
25.463	0.000
25.466	0.000
25.469	0.000
25.473	0.000
25.476	0.000
25.479	0.000
25.482	0.000
25.485	0.000
25.489	0.000
25.492	0.000
25.495	0.000
25.498	0.000
25.501	0.000
25.505	0.000
25.508	0.000
25.511	0.000
25.514	0.000
25.517	0.000
25.521	0.000
25.524	0.000
25.527	0.000
25.530	0.000
25.534	0.000
25.537	0.000
25.540	0.000
25.543	0.000
25.546	0.000
25.550	0.000
25.553	0.000
25.556	0.000
25.559	0.000
25.562	0.000
25.566	0.000
25.569	0.000
25.572	0.000
25.575	0.000
25.578	0.000
25.582	0.000
25.585	0.000
25.588	0.000
25.591	0.000
25.595	0.000
25.598	0.000
25.601	0.000
25.604	0.000
25.607	0.000
25.611	0.000
25.614	0.000
25.617	0.000
25.620	0.000
25.623	0.000
25.627	0.000
25.630	0.000
25.633	0.000
25.636	0.000
25.639	0.000
25.643	0.000
25.646	0.000
25.649	0.000
25.652	0.000
25.656	0.000
25.659	0.000
25.662	0.000
25.665	0.000
25.668	0.000
25.672	0.000
25.675	0.000
25.678	0.000
25.681	0.000
25.684	0.000
25.688	0.000
25.691	0.000
25.694	0.000
25.697	0.000
25.700	0.000
25.704	0.000
25.707	0.000
25.710	0.000
25.713	0.000
25.717	0.000
25.720	0.000
25.723	0.000
25.726	0.000
25.729	0.000
25.733	0.000
25.736	0.000
25.739	0.000
25.742	0.000
25.745	0.000
25.749	0.000
25.752	0.000
25.755	0.000
25.758	0.000
25.761	0.000
25.765	0.000
25.768	0.000
25.771	0.000
25.774	0.000
25.778	0.000
25.781	0.000
25.784	0.000
25.787	0.000
25.790	0.000
25.794	0.000
25.797	0.000
25.800	0.000
25.803	0.000
25.806	0.000
25.810	0.000
25.813	0.000
25.816	0.000
25.819	0.000
25.823	0.000
25.826	0.000
25.829	0.000
25.832	0.000
25.835	0.000
25.839	0.000
25.842	0.000
25.845	0.000
25.848	0.000
25.851	0.000
25.855	0.000
25.858	0.000
25.861	0.000
25.864	0.000
25.867	0.000
25.871	0.000
25.874	0.000
25.877	0.000
25.880	0.000
25.884	0.000
25.887	0.000
25.890	0.000
25.893	0.000
25.896	0.000
25.900	0.000
25.903	0.000
25.906	0.000
25.909	0.000
25.912	0.000
25.916	0.000
25.919	0.000
25.922	0.000
25.925	0.000
25.928	0.000
25.932	0.000
25.935	0.000
25.938	0.000
25.941	0.000
25.945	0.000
25.948	0.000
25.951	0.000
25.954	0.000
25.957	0.000
25.961	0.000
25.964	0.000
25.967	0.000
25.970	0.000
25.973	0.000
25.977	0.000
25.980	0.000
25.983	0.000
25.986	0.000
25.989	0.000
25.993	0.000
25.996	0.000
25.999	0.000
26.002	0.000
26.006	0.000
26.009	0.000
26.012	0.000
26.015	0.000
26.018	0.000
26.022	0.000
26.025	0.000
26.028	0.000
26.031	0.000
26.034	0.000
26.038	0.000
26.041	0.000
26.044	0.000
26.047	0.000
26.050	0.000
26.054	0.000
26.057	0.000
26.060	0.000
26.063	0.000
26.067	0.000
26.070	0.000
26.073	0.000
26.076	0.000
26.079	0.000
26.083	0.000
26.086	0.000
26.089	0.000
26.092	0.000
26.095	0.000
26.099	0.000
26.102	0.000
26.105	0.000
26.108	0.000
26.111	0.000
26.115	0.000
26.118	0.000
26.121	0.000
26.124	0.000
26.128	0.000
26.131	0.000
26.134	0.000
26.137	0.000
26.140	0.000
26.144	0.000
26.147	0.000
26.150	0.000
26.153	0.000
26.156	0.000
26.160	0.000
26.163	0.000
26.166	0.000
26.169	0.000
26.173	0.000
26.176	0.000
26.179	0.000
26.182	0.000
26.185	0.000
26.189	0.000
26.192	0.000
26.195	0.000
26.198	0.000
26.201	0.000
26.205	0.000
26.208	0.000
26.211	0.000
26.214	0.000
26.217	0.000
26.221	0.000
26.224	0.000
26.227	0.000
26.230	0.000
26.234	0.000
26.237	0.000
26.240	0.000
26.243	0.000
26.246	0.000
26.250	0.000
26.253	0.000
26.256	0.000
26.259	0.000
26.262	0.000
26.266	0.000
26.269	0.000
26.272	0.000
26.275	0.000
26.278	0.000
26.282	0.000
26.285	0.000
26.288	0.000
26.291	0.000
26.295	0.000
26.298	0.000
26.301	0.000
26.304	0.000
26.307	0.000
26.311	0.000
26.314	0.000
26.317	0.000
26.320	0.000
26.323	0.000
26.327	0.000
26.330	0.000
26.333	0.000
26.336	0.000
26.339	0.000
26.343	0.000
26.346	0.000
26.349	0.000
26.352	0.000
26.356	0.000
26.359	0.000
26.362	0.000
26.365	0.000
26.368	0.000
26.372	0.000
26.375	0.000
26.378	0.000
26.381	0.000
26.384	0.000
26.388	0.000
26.391	0.000
26.394	0.000
26.397	0.000
26.400	0.000
26.404	0.000
26.407	0.000
26.410	0.000
26.413	0.000
26.417	0.000
26.420	0.000
26.423	0.000
26.426	0.000
26.429	0.000
26.433	0.000
26.436	0.000
26.439	0.000
26.442	0.000
26.445	0.000
26.449	0.000
26.452	0.000
26.455	0.000
26.458	0.000
26.461	0.000
26.465	0.000
26.468	0.000
26.471	0.000
26.474	0.000
26.478	0.000
26.481	0.000
26.484	0.000
26.487	0.000
26.490	0.000
26.494	0.000
26.497	0.000
26.500	0.000
26.503	0.000
26.506	0.000
26.510	0.000
26.513	0.000
26.516	0.000
26.519	0.000
26.523	0.000
26.526	0.000
26.529	0.000
26.532	0.000
26.535	0.000
26.539	0.000
26.542	0.000
26.545	0.000
26.548	0.000
26.551	0.000
26.555	0.000
26.558	0.000
26.561	0.000
26.564	0.000
26.567	0.000
26.571	0.000
26.574	0.000
26.577	0.000
26.580	0.000
26.584	0.000
26.587	0.000
26.590	0.000
26.593	0.000
26.596	0.000
26.600	0.000
26.603	0.000
26.606	0.000
26.609	0.000
26.612	0.000
26.616	0.000
26.619	0.000
26.622	0.000
26.625	0.000
26.628	0.000
26.632	0.000
26.635	0.000
26.638	0.000
26.641	0.000
26.645	0.000
26.648	0.000
26.651	0.000
26.654	0.000
26.657	0.000
26.661	0.000
26.664	0.000
26.667	0.000
26.670	0.000
26.673	0.000
26.677	0.000
26.680	0.000
26.683	0.000
26.686	0.000
26.689	0.000
26.693	0.000
26.696	0.000
26.699	0.000
26.702	0.000
26.706	0.000
26.709	0.000
26.712	0.000
26.715	0.000
26.718	0.000
26.722	0.000
26.725	0.000
26.728	0.000
26.731	0.000
26.734	0.000
26.738	0.000
26.741	0.000
26.744	0.000
26.747	0.000
26.750	0.000
26.754	0.000
26.757	0.000
26.760	0.000
26.763	0.000
26.767	0.000
26.770	0.000
26.773	0.000
26.776	0.000
26.779	0.000
26.783	0.000
26.786	0.000
26.789	0.000
26.792	0.000
26.795	0.000
26.799	0.000
26.802	0.000
26.805	0.000
26.808	0.000
26.811	0.000
26.815	0.000
26.818	0.000
26.821	0.000
26.824	0.000
26.828	0.000
26.831	0.000
26.834	0.000
26.837	0.000
26.840	0.000
26.844	0.000
26.847	0.000
26.850	0.000
26.853	0.000
26.856	0.000
26.860	0.000
26.863	0.000
26.866	0.000
26.869	0.000
26.873	0.000
26.876	0.000
26.879	0.000
26.882	0.000
26.885	0.000
26.889	0.000
26.892	0.000
26.895	0.000
26.898	0.000
26.901	0.000
26.905	0.000
26.908	0.000
26.911	0.000
26.914	0.000
26.917	0.000
26.921	0.000
26.924	0.000
26.927	0.000
26.930	0.000
26.934	0.000
26.937	0.000
26.940	0.000
26.943	0.000
26.946	0.000
26.950	0.000
26.953	0.000
26.956	0.000
26.959	0.000
26.962	0.000
26.966	0.000
26.969	0.000
26.972	0.000
26.975	0.000
26.978	0.000
26.982	0.000
26.985	0.000
26.988	0.000
26.991	0.000
26.995	0.000
26.998	0.000
27.001	0.000
27.004	0.000
27.007	0.000
27.011	0.000
27.014	0.000
27.017	0.000
27.020	0.000
27.023	0.000
27.027	0.000
27.030	0.000
27.033	0.000
27.036	0.000
27.039	0.000
27.043	0.000
27.046	0.000
27.049	0.000
27.052	0.000
27.056	0.000
27.059	0.000
27.062	0.000
27.065	0.000
27.068	0.000
27.072	0.000
27.075	0.000
27.078	0.000
27.081	0.000
27.084	0.000
27.088	0.000
27.091	0.000
27.094	0.000
27.097	0.000
27.100	0.000
27.104	0.000
27.107	0.000
27.110	0.000
27.113	0.000
27.117	0.000
27.120	0.000
27.123	0.000
27.126	0.000
27.129	0.000
27.133	0.000
27.136	0.000
27.139	0.000
27.142	0.000
27.145	0.000
27.149	0.000
27.152	0.000
27.155	0.000
27.158	0.000
27.161	0.000
27.165	0.000
27.168	0.000
27.171	0.000
27.174	0.000
27.178	0.000
27.181	0.000
27.184	0.000
27.187	0.000
27.190	0.000
27.194	0.000
27.197	0.000
27.200	0.000
27.203	0.000
27.206	0.000
27.210	0.000
27.213	0.000
27.216	0.000
27.219	0.000
27.223	0.000
27.226	0.000
27.229	0.000
27.232	0.000
27.235	0.000
27.239	0.000
27.242	0.000
27.245	0.000
27.248	0.000
27.251	0.000
27.255	0.000
27.258	0.000
27.261	0.000
27.264	0.000
27.267	0.000
27.271	0.000
27.274	0.000
27.277	0.000
27.280	0.000
27.284	0.000
27.287	0.000
27.290	0.000
27.293	0.000
27.296	0.000
27.300	0.000
27.303	0.000
27.306	0.000
27.309	0.000
27.312	0.000
27.316	0.000
27.319	0.000
27.322	0.000
27.325	0.000
27.328	0.000
27.332	0.000
27.335	0.000
27.338	0.000
27.341	0.000
27.345	0.000
27.348	0.000
27.351	0.000
27.354	0.000
27.357	0.000
27.361	0.000
27.364	0.000
27.367	0.000
27.370	0.000
27.373	0.000
27.377	0.000
27.380	0.000
27.383	0.000
27.386	0.000
27.389	0.000
27.393	0.000
27.396	0.000
27.399	0.000
27.402	0.000
27.406	0.000
27.409	0.000
27.412	0.000
27.415	0.000
27.418	0.000
27.422	0.000
27.425	0.000
27.428	0.000
27.431	0.000
27.434	0.000
27.438	0.000
27.441	0.000
27.444	0.000
27.447	0.000
27.450	0.000
27.454	0.000
27.457	0.000
27.460	0.000
27.463	0.000
27.467	0.000
27.470	0.000
27.473	0.000
27.476	0.000
27.479	0.000
27.483	0.000
27.486	0.000
27.489	0.000
27.492	0.000
27.495	0.000
27.499	0.000
27.502	0.000
27.505	0.000
27.508	0.000
27.511	0.000
27.515	0.000
27.518	0.000
27.521	0.000
27.524	0.000
27.528	0.000
27.531	0.000
27.534	0.000
27.537	0.000
27.540	0.000
27.544	0.000
27.547	0.000
27.550	0.000
27.553	0.000
27.556	0.000
27.560	0.000
27.563	0.000
27.566	0.000
27.569	0.000
27.572	0.000
27.576	0.000
27.579	0.000
27.582	0.000
27.585	0.000
27.589	0.000
27.592	0.000
27.595	0.000
27.598	0.000
27.601	0.000
27.605	0.000
27.608	0.000
27.611	0.000
27.614	0.000
27.617	0.000
27.621	0.000
27.624	0.000
27.627	0.000
27.630	0.000
27.634	0.000
27.637	0.000
27.640	0.000
27.643	0.000
27.646	0.000
27.650	0.000
27.653	0.000
27.656	0.000
27.659	0.000
27.662	0.000
27.666	0.000
27.669	0.000
27.672	0.000
27.675	0.000
27.678	0.000
27.682	0.000
27.685	0.000
27.688	0.000
27.691	0.000
27.695	0.000
27.698	0.000
27.701	0.000
27.704	0.000
27.707	0.000
27.711	0.000
27.714	0.000
27.717	0.000
27.720	0.000
27.723	0.000
27.727	0.000
27.730	0.000
27.733	0.000
27.736	0.000
27.739	0.000
27.743	0.000
27.746	0.000
27.749	0.000
27.752	0.000
27.756	0.000
27.759	0.000
27.762	0.000
27.765	0.000
27.768	0.000
27.772	0.000
27.775	0.000
27.778	0.000
27.781	0.000
27.784	0.000
27.788	0.000
27.791	0.000
27.794	0.000
27.797	0.000
27.800	0.000
27.804	0.000
27.807	0.000
27.810	0.000
27.813	0.000
27.817	0.000
27.820	0.000
27.823	0.000
27.826	0.000
27.829	0.000
27.833	0.000
27.836	0.000
27.839	0.000
27.842	0.000
27.845	0.000
27.849	0.000
27.852	0.000
27.855	0.000
27.858	0.000
27.861	0.000
27.865	0.000
27.868	0.000
27.871	0.000
27.874	0.000
27.878	0.000
27.881	0.000
27.884	0.000
27.887	0.000
27.890	0.000
27.894	0.000
27.897	0.000
27.900	0.000
27.903	0.000
27.906	0.000
27.910	0.000
27.913	0.000
27.916	0.000
27.919	0.000
27.922	0.000
27.926	0.000
27.929	0.000
27.932	0.000
27.935	0.000
27.939	0.000
27.942	0.000
27.945	0.000
27.948	0.000
27.951	0.000
27.955	0.000
27.958	0.000
27.961	0.000
27.964	0.000
27.967	0.000
27.971	0.000
27.974	0.000
27.977	0.000
27.980	0.000
27.984	0.000
27.987	0.000
27.990	0.000
27.993	0.000
27.996	0.000
28.000	0.000
28.003	0.000
28.006	0.000
28.009	0.000
28.012	0.000
28.016	0.000
28.019	0.000
28.022	0.000
28.025	0.000
28.028	0.000
28.032	0.000
28.035	0.000
28.038	0.000
28.041	0.000
28.045	0.000
28.048	0.000
28.051	0.000
28.054	0.000
28.057	0.000
28.061	0.000
28.064	0.000
28.067	0.000
28.070	0.000
28.073	0.000
28.077	0.000
28.080	0.000
28.083	0.000
28.086	0.000
28.089	0.000
28.093	0.000
28.096	0.000
28.099	0.000
28.102	0.000
28.106	0.000
28.109	0.000
28.112	0.000
28.115	0.000
28.118	0.000
28.122	0.000
28.125	0.000
28.128	0.000
28.131	0.000
28.134	0.000
28.138	0.000
28.141	0.000
28.144	0.000
28.147	0.000
28.150	0.000
28.154	0.000
28.157	0.000
28.160	0.000
28.163	0.000
28.167	0.000
28.170	0.000
28.173	0.000
28.176	0.000
28.179	0.000
28.183	0.000
28.186	0.000
28.189	0.000
28.192	0.000
28.195	0.000
28.199	0.000
28.202	0.000
28.205	0.000
28.208	0.000
28.211	0.000
28.215	0.000
28.218	0.000
28.221	0.000
28.224	0.000
28.228	0.000
28.231	0.000
28.234	0.000
28.237	0.000
28.240	0.000
28.244	0.000
28.247	0.000
28.250	0.000
28.253	0.000
28.256	0.000
28.260	0.000
28.263	0.000
28.266	0.000
28.269	0.000
28.272	0.000
28.276	0.000
28.279	0.000
28.282	0.000
28.285	0.000
28.289	0.000
28.292	0.000
28.295	0.000
28.298	0.000
28.301	0.000
28.305	0.000
28.308	0.000
28.311	0.000
28.314	0.000
28.317	0.000
28.321	0.000
28.324	0.000
28.327	0.000
28.330	0.000
28.334	0.000
28.337	0.000
28.340	0.000
28.343	0.000
28.346	0.000
28.350	0.000
28.353	0.000
28.356	0.000
28.359	0.000
28.362	0.000
28.366	0.000
28.369	0.000
28.372	0.000
28.375	0.000
28.378	0.000
28.382	0.000
28.385	0.000
28.388	0.000
28.391	0.000
28.395	0.000
28.398	0.000
28.401	0.000
28.404	0.000
28.407	0.000
28.411	0.000
28.414	0.000
28.417	0.000
28.420	0.000
28.423	0.000
28.427	0.000
28.430	0.000
28.433	0.000
28.436	0.000
28.439	0.000
28.443	0.000
28.446	0.000
28.449	0.000
28.452	0.000
28.456	0.000
28.459	0.000
28.462	0.000
28.465	0.000
28.468	0.000
28.472	0.000
28.475	0.000
28.478	0.000
28.481	0.000
28.484	0.000
28.488	0.000
28.491	0.000
28.494	0.000
28.497	0.000
28.500	0.000
28.504	0.000
28.507	0.000
28.510	0.000
28.513	0.000
28.517	0.000
28.520	0.000
28.523	0.000
28.526	0.000
28.529	0.000
28.533	0.000
28.536	0.000
28.539	0.000
28.542	0.000
28.545	0.000
28.549	0.000
28.552	0.000
28.555	0.000
28.558	0.000
28.561	0.000
28.565	0.000
28.568	0.000
28.571	0.000
28.574	0.000
28.578	0.000
28.581	0.000
28.584	0.000
28.587	0.000
28.590	0.000
28.594	0.000
28.597	0.000
28.600	0.000
28.603	0.000
28.606	0.000
28.610	0.000
28.613	0.000
28.616	0.000
28.619	0.000
28.622	0.000
28.626	0.000
28.629	0.000
28.632	0.000
28.635	0.000
28.639	0.000
28.642	0.000
28.645	0.000
28.648	0.000
28.651	0.000
28.655	0.000
28.658	0.000
28.661	0.000
28.664	0.000
28.667	0.000
28.671	0.000
28.674	0.000
28.677	0.000
28.680	0.000
28.684	0.000
28.687	0.000
28.690	0.000
28.693	0.000
28.696	0.000
28.700	0.000
28.703	0.000
28.706	0.000
28.709	0.000
28.712	0.000
28.716	0.000
28.719	0.000
28.722	0.000
28.725	0.000
28.728	0.000
28.732	0.000
28.735	0.000
28.738	0.000
28.741	0.000
28.745	0.000
28.748	0.000
28.751	0.000
28.754	0.000
28.757	0.000
28.761	0.000
28.764	0.000
28.767	0.000
28.770	0.000
28.773	0.000
28.777	0.000
28.780	0.000
28.783	0.000
28.786	0.000
28.789	0.000
28.793	0.000
28.796	0.000
28.799	0.000
28.802	0.000
28.806	0.000
28.809	0.000
28.812	0.000
28.815	0.000
28.818	0.000
28.822	0.000
28.825	0.000
28.828	0.000
28.831	0.000
28.834	0.000
28.838	0.000
28.841	0.000
28.844	0.000
28.847	0.000
28.850	0.000
28.854	0.000
28.857	0.000
28.860	0.000
28.863	0.000
28.867	0.000
28.870	0.000
28.873	0.000
28.876	0.000
28.879	0.000
28.883	0.000
28.886	0.000
28.889	0.000
28.892	0.000
28.895	0.000
28.899	0.000
28.902	0.000
28.905	0.000
28.908	0.000
28.911	0.000
28.915	0.000
28.918	0.000
28.921	0.000
28.924	0.000
28.928	0.000
28.931	0.000
28.934	0.000
28.937	0.000
28.940	0.000
28.944	0.000
28.947	0.000
28.950	0.000
28.953	0.000
28.956	0.000
28.960	0.000
28.963	0.000
28.966	0.000
28.969	0.000
28.972	0.000
28.976	0.000
28.979	0.000
28.982	0.000
28.985	0.000
28.989	0.000
28.992	0.000
28.995	0.000
28.998	0.000
29.001	0.000
29.005	0.000
29.008	0.000
29.011	0.000
29.014	0.000
29.017	0.000
29.021	0.000
29.024	0.000
29.027	0.000
29.030	0.000
29.034	0.000
29.037	0.000
29.040	0.000
29.043	0.000
29.046	0.000
29.050	0.000
29.053	0.000
29.056	0.000
29.059	0.000
29.062	0.000
29.066	0.000
29.069	0.000
29.072	0.000
29.075	0.000
29.078	0.000
29.082	0.000
29.085	0.000
29.088	0.000
29.091	0.000
29.095	0.000
29.098	0.000
29.101	0.000
29.104	0.000
29.107	0.000
29.111	0.000
29.114	0.000
29.117	0.000
29.120	0.000
29.123	0.000
29.127	0.000
29.130	0.000
29.133	0.000
29.136	0.000
29.139	0.000
29.143	0.000
29.146	0.000
29.149	0.000
29.152	0.000
29.156	0.000
29.159	0.000
29.162	0.000
29.165	0.000
29.168	0.000
29.172	0.000
29.175	0.000
29.178	0.000
29.181	0.000
29.184	0.000
29.188	0.000
29.191	0.000
29.194	0.000
29.197	0.000
29.200	0.000
29.204	0.000
29.207	0.000
29.210	0.000
29.213	0.000
29.217	0.000
29.220	0.000
29.223	0.000
29.226	0.000
29.229	0.000
29.233	0.000
29.236	0.000
29.239	0.000
29.242	0.000
29.245	0.000
29.249	0.000
29.252	0.000
29.255	0.000
29.258	0.000
29.261	0.000
29.265	0.000
29.268	0.000
29.271	0.000
29.274	0.000
29.278	0.000
29.281	0.000
29.284	0.000
29.287	0.000
29.290	0.000
29.294	0.000
29.297	0.000
29.300	0.000
29.303	0.000
29.306	0.000
29.310	0.000
29.313	0.000
29.316	0.000
29.319	0.000
29.322	0.000
29.326	0.000
29.329	0.000
29.332	0.000
29.335	0.000
29.339	0.000
29.342	0.000
29.345	0.000
29.348	0.000
29.351	0.000
29.355	0.000
29.358	0.000
29.361	0.000
29.364	0.000
29.367	0.000
29.371	0.000
29.374	0.000
29.377	0.000
29.380	0.000
29.384	0.000
29.387	0.000
29.390	0.000
29.393	0.000
29.396	0.000
29.400	0.000
29.403	0.000
29.406	0.000
29.409	0.000
29.412	0.000
29.416	0.000
29.419	0.000
29.422	0.000
29.425	0.000
29.428	0.000
29.432	0.000
29.435	0.000
29.438	0.000
29.441	0.000
29.445	0.000
29.448	0.000
29.451	0.000
29.454	0.000
29.457	0.000
29.461	0.000
29.464	0.000
29.467	0.000
29.470	0.000
29.473	0.000
29.477	0.000
29.480	0.000
29.483	0.000
29.486	0.000
29.489	0.000
29.493	0.000
29.496	0.000
29.499	0.000
29.502	0.000
29.506	0.000
29.509	0.000
29.512	0.000
29.515	0.000
29.518	0.000
29.522	0.000
29.525	0.000
29.528	0.000
29.531	0.000
29.534	0.000
29.538	0.000
29.541	0.000
29.544	0.000
29.547	0.000
29.550	0.000
29.554	0.000
29.557	0.000
29.560	0.000
29.563	0.000
29.567	0.000
29.570	0.000
29.573	0.000
29.576	0.000
29.579	0.000
29.583	0.000
29.586	0.000
29.589	0.000
29.592	0.000
29.595	0.000
29.599	0.000
29.602	0.000
29.605	0.000
29.608	0.000
29.611	0.000
29.615	0.000
29.618	0.000
29.621	0.000
29.624	0.000
29.628	0.000
29.631	0.000
29.634	0.000
29.637	0.000
29.640	0.000
29.644	0.000
29.647	0.000
29.650	0.000
29.653	0.000
29.656	0.000
29.660	0.000
29.663	0.000
29.666	0.000
29.669	0.000
29.672	0.000
29.676	0.000
29.679	0.000
29.682	0.000
29.685	0.000
29.689	0.000
29.692	0.000
29.695	0.000
29.698	0.000
29.701	0.000
29.705	0.000
29.708	0.000
29.711	0.000
29.714	0.000
29.717	0.000
29.721	0.000
29.724	0.000
29.727	0.000
29.730	0.000
29.734	0.000
29.737	0.000
29.740	0.000
29.743	0.000
29.746	0.000
29.750	0.000
29.753	0.000
29.756	0.000
29.759	0.000
29.762	0.000
29.766	0.000
29.769	0.000
29.772	0.000
29.775	0.000
29.778	0.000
29.782	0.000
29.785	0.000
29.788	0.000
29.791	0.000
29.795	0.000
29.798	0.000
29.801	0.000
29.804	0.000
29.807	0.000
29.811	0.000
29.814	0.000
29.817	0.000
29.820	0.000
29.823	0.000
29.827	0.000
29.830	0.000
29.833	0.000
29.836	0.000
29.839	0.000
29.843	0.000
29.846	0.000
29.849	0.000
29.852	0.000
29.856	0.000
29.859	0.000
29.862	0.000
29.865	0.000
29.868	0.000
29.872	0.000
29.875	0.000
29.878	0.000
29.881	0.000
29.884	0.000
29.888	0.000
29.891	0.000
29.894	0.000
29.897	0.000
29.900	0.000
29.904	0.000
29.907	0.000
29.910	0.000
29.913	0.000
29.917	0.000
29.920	0.000
29.923	0.000
29.926	0.000
29.929	0.000
29.933	0.000
29.936	0.000
29.939	0.000
29.942	0.000
29.945	0.000
29.949	0.000
29.952	0.000
29.955	0.000
29.958	0.000
29.961	0.000
29.965	0.000
29.968	0.000
29.971	0.000
29.974	0.000
29.978	0.000
29.981	0.000
29.984	0.000
29.987	0.000
29.990	0.000
29.994	0.000
29.997	0.000
30.000	0.000
30.003	0.000
30.006	0.000
30.010	0.000
30.013	0.000
30.016	0.000
30.019	0.000
30.022	0.000
30.026	0.000
30.029	0.000
30.032	0.000
30.035	0.000
30.039	0.000
30.042	0.000
30.045	0.000
30.048	0.000
30.051	0.000
30.055	0.000
30.058	0.000
30.061	0.000
30.064	0.000
30.067	0.000
30.071	0.000
30.074	0.000
30.077	0.000
30.080	0.000
30.084	0.000
30.087	0.000
30.090	0.000
30.093	0.000
30.096	0.000
30.100	0.000
30.103	0.000
30.106	0.000
30.109	0.000
30.112	0.000
30.116	0.000
30.119	0.000
30.122	0.000
30.125	0.000
30.128	0.000
30.132	0.000
30.135	0.000
30.138	0.000
30.141	0.000
30.145	0.000
30.148	0.000
30.151	0.000
30.154	0.000
30.157	0.000
30.161	0.000
30.164	0.000
30.167	0.000
30.170	0.000
30.173	0.000
30.177	0.000
30.180	0.000
30.183	0.000
30.186	0.000
30.189	0.000
30.193	0.000
30.196	0.000
30.199	0.000
30.202	0.000
30.206	0.000
30.209	0.000
30.212	0.000
30.215	0.000
30.218	0.000
30.222	0.000
30.225	0.000
30.228	0.000
30.231	0.000
30.234	0.000
30.238	0.000
30.241	0.000
30.244	0.000
30.247	0.000
30.250	0.000
30.254	0.000
30.257	0.000
30.260	0.000
30.263	0.000
30.267	0.000
30.270	0.000
30.273	0.000
30.276	0.000
30.279	0.000
30.283	0.000
30.286	0.000
30.289	0.000
30.292	0.000
30.295	0.000
30.299	0.000
30.302	0.000
30.305	0.000
30.308	0.000
30.311	0.000
30.315	0.000
30.318	0.000
30.321	0.000
30.324	0.000
30.328	0.000
30.331	0.000
30.334	0.000
30.337	0.000
30.340	0.000
30.344	0.000
30.347	0.000
30.350	0.000
30.353	0.000
30.356	0.000
30.360	0.000
30.363	0.000
30.366	0.000
30.369	0.000
30.372	0.000
30.376	0.000
30.379	0.000
30.382	0.000
30.385	0.000
30.389	0.000
30.392	0.000
30.395	0.000
30.398	0.000
30.401	0.000
30.405	0.000
30.408	0.000
30.411	0.000
30.414	0.000
30.417	0.000
30.421	0.000
30.424	0.000
30.427	0.000
30.430	0.000
30.433	0.000
30.437	0.000
30.440	0.000
30.443	0.000
30.446	0.000
30.450	0.000
30.453	0.000
30.456	0.000
30.459	0.000
30.462	0.000
30.466	0.000
30.469	0.000
30.472	0.000
30.475	0.000
30.478	0.000
30.482	0.000
30.485	0.000
30.488	0.000
30.491	0.000
30.495	0.000
30.498	0.000
30.501	0.000
30.504	0.000
30.507	0.000
30.511	0.000
30.514	0.000
30.517	0.000
30.520	0.000
30.523	0.000
30.527	0.000
30.530	0.000
30.533	0.000
30.536	0.000
30.539	0.000
30.543	0.000
30.546	0.000
30.549	0.000
30.552	0.000
30.556	0.000
30.559	0.000
30.562	0.000
30.565	0.000
30.568	0.000
30.572	0.000
30.575	0.000
30.578	0.000
30.581	0.000
30.584	0.000
30.588	0.000
30.591	0.000
30.594	0.000
30.597	0.000
30.600	0.000
30.604	0.000
30.607	0.000
30.610	0.000
30.613	0.000
30.617	0.000
30.620	0.000
30.623	0.000
30.626	0.000
30.629	0.000
30.633	0.000
30.636	0.000
30.639	0.000
30.642	0.000
30.645	0.000
30.649	0.000
30.652	0.000
30.655	0.000
30.658	0.000
30.661	0.000
30.665	0.000
30.668	0.000
30.671	0.000
30.674	0.000
30.678	0.000
30.681	0.000
30.684	0.000
30.687	0.000
30.690	0.000
30.694	0.000
30.697	0.000
30.700	0.000
30.703	0.000
30.706	0.000
30.710	0.000
30.713	0.000
30.716	0.000
30.719	0.000
30.722	0.000
30.726	0.000
30.729	0.000
30.732	0.000
30.735	0.000
30.739	0.000
30.742	0.000
30.745	0.000
30.748	0.000
30.751	0.000
30.755	0.000
30.758	0.000
30.761	0.000
30.764	0.000
30.767	0.000
30.771	0.000
30.774	0.000
30.777	0.000
30.780	0.000
30.783	0.000
30.787	0.000
30.790	0.000
30.793	0.000
30.796	0.000
30.800	0.000
30.803	0.000
30.806	0.000
30.809	0.000
30.812	0.000
30.816	0.000
30.819	0.000
30.822	0.000
30.825	0.000
30.828	0.000
30.832	0.000
30.835	0.000
30.838	0.000
30.841	0.000
30.845	0.000
30.848	0.000
30.851	0.000
30.854	0.000
30.857	0.000
30.861	0.000
30.864	0.000
30.867	0.000
30.870	0.000
30.873	0.000
30.877	0.000
30.880	0.000
30.883	0.000
30.886	0.000
30.889	0.000
30.893	0.000
30.896	0.000
30.899	0.000
30.902	0.000
30.906	0.000
30.909	0.000
30.912	0.000
30.915	0.000
30.918	0.000
30.922	0.000
30.925	0.000
30.928	0.000
30.931	0.000
30.934	0.000
30.938	0.000
30.941	0.000
30.944	0.000
30.947	0.000
30.950	0.000
30.954	0.000
30.957	0.000
30.960	0.000
30.963	0.000
30.967	0.000
30.970	0.000
30.973	0.000
30.976	0.000
30.979	0.000
30.983	0.000
30.986	0.000
30.989	0.000
30.992	0.000
30.995	0.000
30.999	0.000
31.002	0.000
31.005	0.000
31.008	0.000
31.011	0.000
31.015	0.000
31.018	0.000
31.021	0.000
31.024	0.000
31.028	0.000
31.031	0.000
31.034	0.000
31.037	0.000
31.040	0.000
31.044	0.000
31.047	0.000
31.050	0.000
31.053	0.000
31.056	0.000
31.060	0.000
31.063	0.000
31.066	0.000
31.069	0.000
31.072	0.000
31.076	0.000
31.079	0.000
31.082	0.000
31.085	0.000
31.089	0.000
31.092	0.000
31.095	0.000
31.098	0.000
31.101	0.000
31.105	0.000
31.108	0.000
31.111	0.000
31.114	0.000
31.117	0.000
31.121	0.000
31.124	0.000
31.127	0.000
31.130	0.000
31.133	0.000
31.137	0.000
31.140	0.000
31.143	0.000
31.146	0.000
31.150	0.000
31.153	0.000
31.156	0.000
31.159	0.000
31.162	0.000
31.166	0.000
31.169	0.000
31.172	0.000
31.175	0.000
31.178	0.000
31.182	0.000
31.185	0.000
31.188	0.000
31.191	0.000
31.195	0.000
31.198	0.000
31.201	0.000
31.204	0.000
31.207	0.000
31.211	0.000
31.214	0.000
31.217	0.000
31.220	0.000
31.223	0.000
31.227	0.000
31.230	0.000
31.233	0.000
31.236	0.000
31.239	0.000
31.243	0.000
31.246	0.000
31.249	0.000
31.252	0.000
31.256	0.000
31.259	0.000
31.262	0.000
31.265	0.000
31.268	0.000
31.272	0.000
31.275	0.000
31.278	0.000
31.281	0.000
31.284	0.000
31.288	0.000
31.291	0.000
31.294	0.000
31.297	0.000
31.300	0.000
31.304	0.000
31.307	0.000
31.310	0.000
31.313	0.000
31.317	0.000
31.320	0.000
31.323	0.000
31.326	0.000
31.329	0.000
31.333	0.000
31.336	0.000
31.339	0.000
31.342	0.000
31.345	0.000
31.349	0.000
31.352	0.000
31.355	0.000
31.358	0.000
31.361	0.000
31.365	0.000
31.368	0.000
31.371	0.000
31.374	0.000
31.378	0.000
31.381	0.000
31.384	0.000
31.387	0.000
31.390	0.000
31.394	0.000
31.397	0.000
31.400	0.000
31.403	0.000
31.406	0.000
31.410	0.000
31.413	0.000
31.416	0.000
31.419	0.000
31.422	0.000
31.426	0.000
31.429	0.000
31.432	0.000
31.435	0.000
31.439	0.000
31.442	0.000
31.445	0.000
31.448	0.000
31.451	0.000
31.455	0.000
31.458	0.000
31.461	0.000
31.464	0.000
31.467	0.000
31.471	0.000
31.474	0.000
31.477	0.000
31.480	0.000
31.483	0.000
31.487	0.000
31.490	0.000
31.493	0.000
31.496	0.000
31.500	0.000
31.503	0.000
31.506	0.000
31.509	0.000
31.512	0.000
31.516	0.000
31.519	0.000
31.522	0.000
31.525	0.000
31.528	0.000
31.532	0.000
31.535	0.000
31.538	0.000
31.541	0.000
31.545	0.000
31.548	0.000
31.551	0.000
31.554	0.000
31.557	0.000
31.561	0.000
31.564	0.000
31.567	0.000
31.570	0.000
31.573	0.000
31.577	0.000
31.580	0.000
31.583	0.000
31.586	0.000
31.589	0.000
31.593	0.000
31.596	0.000
31.599	0.000
31.602	0.000
31.606	0.000
31.609	0.000
31.612	0.000
31.615	0.000
31.618	0.000
31.622	0.000
31.625	0.000
31.628	0.000
31.631	0.000
31.634	0.000
31.638	0.000
31.641	0.000
31.644	0.000
31.647	0.000
31.650	0.000
31.654	0.000
31.657	0.000
31.660	0.000
31.663	0.000
31.667	0.000
31.670	0.000
31.673	0.000
31.676	0.000
31.679	0.000
31.683	0.000
31.686	0.000
31.689	0.000
31.692	0.000
31.695	0.000
31.699	0.000
31.702	0.000
31.705	0.000
31.708	0.000
31.711	0.000
31.715	0.000
31.718	0.000
31.721	0.000
31.724	0.000
31.728	0.000
31.731	0.000
31.734	0.000
31.737	0.000
31.740	0.000
31.744	0.000
31.747	0.000
31.750	0.000
31.753	0.000
31.756	0.000
31.760	0.000
31.763	0.000
31.766	0.000
31.769	0.000
31.772	0.000
31.776	0.000
31.779	0.000
31.782	0.000
31.785	0.000
31.789	0.000
31.792	0.000
31.795	0.000
31.798	0.000
31.801	0.000
31.805	0.000
31.808	0.000
31.811	0.000
31.814	0.000
31.817	0.000
31.821	0.000
31.824	0.000
31.827	0.000
31.830	0.000
31.833	0.000
31.837	0.000
31.840	0.000
31.843	0.000
31.846	0.000
31.850	0.000
31.853	0.000
31.856	0.000
31.859	0.000
31.862	0.000
31.866	0.000
31.869	0.000
31.872	0.000
31.875	0.000
31.878	0.000
31.882	0.000
31.885	0.000
31.888	0.000
31.891	0.000
31.895	0.000
31.898	0.000
31.901	0.000
31.904	0.000
31.907	0.000
31.911	0.000
31.914	0.000
31.917	0.000
31.920	0.000
31.923	0.000
31.927	0.000
31.930	0.000
31.933	0.000
31.936	0.000
31.939	0.000
31.943	0.000
31.946	0.000
31.949	0.000
31.952	0.000
31.956	0.000
31.959	0.000
31.962	0.000
31.965	0.000
31.968	0.000
31.972	0.000
31.975	0.000
31.978	0.000
31.981	0.000
31.984	0.000
31.988	0.000
31.991	0.000
31.994	0.000
31.997	0.000
32.000	0.000
32.004	0.000
32.007	0.000
32.010	0.000
32.013	0.000
32.017	0.000
32.020	0.000
32.023	0.000
32.026	0.000
32.029	0.000
32.033	0.000
32.036	0.000
32.039	0.000
32.042	0.000
32.045	0.000
32.049	0.000
32.052	0.000
32.055	0.000
32.058	0.000
32.061	0.000
32.065	0.000
32.068	0.000
32.071	0.000
32.074	0.000
32.078	0.000
32.081	0.000
32.084	0.000
32.087	0.000
32.090	0.000
32.094	0.000
32.097	0.000
32.100	0.000
32.103	0.000
32.106	0.000
32.110	0.000
32.113	0.000
32.116	0.000
32.119	0.000
32.122	0.000
32.126	0.000
32.129	0.000
32.132	0.000
32.135	0.000
32.139	0.000
32.142	0.000
32.145	0.000
32.148	0.000
32.151	0.000
32.155	0.000
32.158	0.000
32.161	0.000
32.164	0.000
32.167	0.000
32.171	0.000
32.174	0.000
32.177	0.000
32.180	0.000
32.183	0.000
32.187	0.000
32.190	0.000
32.193	0.000
32.196	0.000
32.200	0.000
32.203	0.000
32.206	0.000
32.209	0.000
32.212	0.000
32.216	0.000
32.219	0.000
32.222	0.000
32.225	0.000
32.228	0.000
32.232	0.000
32.235	0.000
32.238	0.000
32.241	0.000
32.245	0.000
32.248	0.000
32.251	0.000
32.254	0.000
32.257	0.000
32.261	0.000
32.264	0.000
32.267	0.000
32.270	0.000
32.273	0.000
32.277	0.000
32.280	0.000
32.283	0.000
32.286	0.000
32.289	0.000
32.293	0.000
32.296	0.000
32.299	0.000
32.302	0.000
32.306	0.000
32.309	0.000
32.312	0.000
32.315	0.000
32.318	0.000
32.322	0.000
32.325	0.000
32.328	0.000
32.331	0.000
32.334	0.000
32.338	0.000
32.341	0.000
32.344	0.000
32.347	0.000
32.350	0.000
32.354	0.000
32.357	0.000
32.360	0.000
32.363	0.000
32.367	0.000
32.370	0.000
32.373	0.000
32.376	0.000
32.379	0.000
32.383	0.000
32.386	0.000
32.389	0.000
32.392	0.000
32.395	0.000
32.399	0.000
32.402	0.000
32.405	0.000
32.408	0.000
32.411	0.000
32.415	0.000
32.418	0.000
32.421	0.000
32.424	0.000
32.428	0.000
32.431	0.000
32.434	0.000
32.437	0.000
32.440	0.000
32.444	0.000
32.447	0.000
32.450	0.000
32.453	0.000
32.456	0.000
32.460	0.000
32.463	0.000
32.466	0.000
32.469	0.000
32.472	0.000
32.476	0.000
32.479	0.000
32.482	0.000
32.485	0.000
32.489	0.000
32.492	0.000
32.495	0.000
32.498	0.000
32.501	0.000
32.505	0.000
32.508	0.000
32.511	0.000
32.514	0.000
32.517	0.000
32.521	0.000
32.524	0.000
32.527	0.000
32.530	0.000
32.533	0.000
32.537	0.000
32.540	0.000
32.543	0.000
32.546	0.000
32.550	0.000
32.553	0.000
32.556	0.000
32.559	0.000
32.562	0.000
32.566	0.000
32.569	0.000
32.572	0.000
32.575	0.000
32.578	0.000
32.582	0.000
32.585	0.000
32.588	0.000
32.591	0.000
32.595	0.000
32.598	0.000
32.601	0.000
32.604	0.000
32.607	0.000
32.611	0.000
32.614	0.000
32.617	0.000
32.620	0.000
32.623	0.000
32.627	0.000
32.630	0.000
32.633	0.000
32.636	0.000
32.639	0.000
32.643	0.000
32.646	0.000
32.649	0.000
32.652	0.000
32.656	0.000
32.659	0.000
32.662	0.000
32.665	0.000
32.668	0.000
32.672	0.000
32.675	0.000
32.678	0.000
32.681	0.000
32.684	0.000
32.688	0.000
32.691	0.000
32.694	0.000
32.697	0.000
32.700	0.000
32.704	0.000
32.707	0.000
32.710	0.000
32.713	0.000
32.717	0.000
32.720	0.000
32.723	0.000
32.726	0.000
32.729	0.000
32.733	0.000
32.736	0.000
32.739	0.000
32.742	0.000
32.745	0.000
32.749	0.000
32.752	0.000
32.755	0.000
32.758	0.000
32.761	0.000
32.765	0.000
32.768	0.000
32.771	0.000
32.774	0.000
32.778	0.000
32.781	0.000
32.784	0.000
32.787	0.000
32.790	0.000
32.794	0.000
32.797	0.000
32.800	0.000
32.803	0.000
32.806	0.000
32.810	0.000
32.813	0.000
32.816	0.000
32.819	0.000
32.822	0.000
32.826	0.000
32.829	0.000
32.832	0.000
32.835	0.000
32.839	0.000
32.842	0.000
32.845	0.000
32.848	0.000
32.851	0.000
32.855	0.000
32.858	0.000
32.861	0.000
32.864	0.000
32.867	0.000
32.871	0.000
32.874	0.000
32.877	0.000
32.880	0.000
32.883	0.000
32.887	0.000
32.890	0.000
32.893	0.000
32.896	0.000
32.900	0.000
32.903	0.000
32.906	0.000
32.909	0.000
32.912	0.000
32.916	0.000
32.919	0.000
32.922	0.000
32.925	0.000
32.928	0.000
32.932	0.000
32.935	0.000
32.938	0.000
32.941	0.000
32.945	0.000
32.948	0.000
32.951	0.000
32.954	0.000
32.957	0.000
32.961	0.000
32.964	0.000
32.967	0.000
32.970	0.000
32.973	0.000
32.977	0.000
32.980	0.000
32.983	0.000
32.986	0.000
32.989	0.000
32.993	0.000
32.996	0.000
32.999	0.000
33.002	0.000
33.006	0.000
33.009	0.000
33.012	0.000
33.015	0.000
33.018	0.000
33.022	0.000
33.025	0.000
33.028	0.000
33.031	0.000
33.034	0.000
33.038	0.000
33.041	0.000
33.044	0.000
33.047	0.000
33.050	0.000
33.054	0.000
33.057	0.000
33.060	0.000
33.063	0.000
33.067	0.000
33.070	0.000
33.073	0.000
33.076	0.000
33.079	0.000
33.083	0.000
33.086	0.000
33.089	0.000
33.092	0.000
33.095	0.000
33.099	0.000
33.102	0.000
33.105	0.000
33.108	0.000
33.111	0.000
33.115	0.000
33.118	0.000
33.121	0.000
33.124	0.000
33.128	0.000
33.131	0.000
33.134	0.000
33.137	0.000
33.140	0.000
33.144	0.000
33.147	0.000
33.150	0.000
33.153	0.000
33.156	0.000
33.160	0.000
33.163	0.000
33.166	0.000
33.169	0.000
33.172	0.000
33.176	0.000
33.179	0.000
33.182	0.000
33.185	0.000
33.189	0.000
33.192	0.000
33.195	0.000
33.198	0.000
33.201	0.000
33.205	0.000
33.208	0.000
33.211	0.000
33.214	0.000
33.217	0.000
33.221	0.000
33.224	0.000
33.227	0.000
33.230	0.000
33.233	0.000
33.237	0.000
33.240	0.000
33.243	0.000
33.246	0.000
33.250	0.000
33.253	0.000
33.256	0.000
33.259	0.000
33.262	0.000
33.266	0.000
33.269	0.000
33.272	0.000
33.275	0.000
33.278	0.000
33.282	0.000
33.285	0.000
33.288	0.000
33.291	0.000
33.295	0.000
33.298	0.000
33.301	0.000
33.304	0.000
33.307	0.000
33.311	0.000
33.314	0.000
33.317	0.000
33.320	0.000
33.323	0.000
33.327	0.000
33.330	0.000
33.333	0.000
33.336	0.000
33.339	0.000
33.343	0.000
33.346	0.000
33.349	0.000
33.352	0.000
33.356	0.000
33.359	0.000
33.362	0.000
33.365	0.000
33.368	0.000
33.372	0.000
33.375	0.000
33.378	0.000
33.381	0.000
33.384	0.000
33.388	0.000
33.391	0.000
33.394	0.000
33.397	0.000
33.400	0.000
33.404	0.000
33.407	0.000
33.410	0.000
33.413	0.000
33.417	0.000
33.420	0.000
33.423	0.000
33.426	0.000
33.429	0.000
33.433	0.000
33.436	0.000
33.439	0.000
33.442	0.000
33.445	0.000
33.449	0.000
33.452	0.000
33.455	0.000
33.458	0.000
33.461	0.000
33.465	0.000
33.468	0.000
33.471	0.000
33.474	0.000
33.478	0.000
33.481	0.000
33.484	0.000
33.487	0.000
33.490	0.000
33.494	0.000
33.497	0.000
33.500	0.000
33.503	0.000
33.506	0.000
33.510	0.000
33.513	0.000
33.516	0.000
33.519	0.000
33.522	0.000
33.526	0.000
33.529	0.000
33.532	0.000
33.535	0.000
33.539	0.000
33.542	0.000
33.545	0.000
33.548	0.000
33.551	0.000
33.555	0.000
33.558	0.000
33.561	0.000
33.564	0.000
33.567	0.000
33.571	0.000
33.574	0.000
33.577	0.000
33.580	0.000
33.583	0.000
33.587	0.000
33.590	0.000
33.593	0.000
33.596	0.000
33.600	0.000
33.603	0.000
33.606	0.000
33.609	0.000
33.612	0.000
33.616	0.000
33.619	0.000
33.622	0.000
33.625	0.000
33.628	0.000
33.632	0.000
33.635	0.000
33.638	0.000
33.641	0.000
33.645	0.000
33.648	0.000
33.651	0.000
33.654	0.000
33.657	0.000
33.661	0.000
33.664	0.000
33.667	0.000
33.670	0.000
33.673	0.000
33.677	0.000
33.680	0.000
33.683	0.000
33.686	0.000
33.689	0.000
33.693	0.000
33.696	0.000
33.699	0.000
33.702	0.000
33.706	0.000
33.709	0.000
33.712	0.000
33.715	0.000
33.718	0.000
33.722	0.000
33.725	0.000
33.728	0.000
33.731	0.000
33.734	0.000
33.738	0.000
33.741	0.000
33.744	0.000
33.747	0.000
33.750	0.000
33.754	0.000
33.757	0.000
33.760	0.000
33.763	0.000
33.767	0.000
33.770	0.000
33.773	0.000
33.776	0.000
33.779	0.000
33.783	0.000
33.786	0.000
33.789	0.000
33.792	0.000
33.795	0.000
33.799	0.000
33.802	0.000
33.805	0.000
33.808	0.000
33.811	0.000
33.815	0.000
33.818	0.000
33.821	0.000
33.824	0.000
33.828	0.000
33.831	0.000
33.834	0.000
33.837	0.000
33.840	0.000
33.844	0.000
33.847	0.000
33.850	0.000
33.853	0.000
33.856	0.000
33.860	0.000
33.863	0.000
33.866	0.000
33.869	0.000
33.872	0.000
33.876	0.000
33.879	0.000
33.882	0.000
33.885	0.000
33.889	0.000
33.892	0.000
33.895	0.000
33.898	0.000
33.901	0.000
33.905	0.000
33.908	0.000
33.911	0.000
33.914	0.000
33.917	0.000
33.921	0.000
33.924	0.000
33.927	0.000
33.930	0.000
33.933	0.000
33.937	0.000
33.940	0.000
33.943	0.000
33.946	0.000
33.950	0.000
33.953	0.000
33.956	0.000
33.959	0.000
33.962	0.000
33.966	0.000
33.969	0.000
33.972	0.000
33.975	0.000
33.978	0.000
33.982	0.000
33.985	0.000
33.988	0.000
33.991	0.000
33.994	0.000
33.998	0.000
34.001	0.000
34.004	0.000
34.007	0.000
34.011	0.000
34.014	0.000
34.017	0.000
34.020	0.000
34.023	0.000
34.027	0.000
34.030	0.000
34.033	0.000
34.036	0.000
34.039	0.000
34.043	0.000
34.046	0.000
34.049	0.000
34.052	0.000
34.056	0.000
34.059	0.000
34.062	0.000
34.065	0.000
34.068	0.000
34.072	0.000
34.075	0.000
34.078	0.000
34.081	0.000
34.084	0.000
34.088	0.000
34.091	0.000
34.094	0.000
34.097	0.000
34.100	0.000
34.104	0.000
34.107	0.000
34.110	0.000
34.113	0.000
34.117	0.000
34.120	0.000
34.123	0.000
34.126	0.000
34.129	0.000
34.133	0.000
34.136	0.000
34.139	0.000
34.142	0.000
34.145	0.000
34.149	0.000
34.152	0.000
34.155	0.000
34.158	0.000
34.161	0.000
34.165	0.000
34.168	0.000
34.171	0.000
34.174	0.000
34.178	0.000
34.181	0.000
34.184	0.000
34.187	0.000
34.190	0.000
34.194	0.000
34.197	0.000
34.200	0.000
34.203	0.000
34.206	0.000
34.210	0.000
34.213	0.000
34.216	0.000
34.219	0.000
34.222	0.000
34.226	0.000
34.229	0.000
34.232	0.000
34.235	0.000
34.239	0.000
34.242	0.000
34.245	0.000
34.248	0.000
34.251	0.000
34.255	0.000
34.258	0.000
34.261	0.000
34.264	0.000
34.267	0.000
34.271	0.000
34.274	0.000
34.277	0.000
34.280	0.000
34.283	0.000
34.287	0.000
34.290	0.000
34.293	0.000
34.296	0.000
34.300	0.000
34.303	0.000
34.306	0.000
34.309	0.000
34.312	0.000
34.316	0.000
34.319	0.000
34.322	0.000
34.325	0.000
34.328	0.000
34.332	0.000
34.335	0.000
34.338	0.000
34.341	0.000
34.344	0.000
34.348	0.000
34.351	0.000
34.354	0.000
34.357	0.000
34.361	0.000
34.364	0.000
34.367	0.000
34.370	0.000
34.373	0.000
34.377	0.000
34.380	0.000
34.383	0.000
34.386	0.000
34.389	0.000
34.393	0.000
34.396	0.000
34.399	0.000
34.402	0.000
34.406	0.000
34.409	0.000
34.412	0.000
34.415	0.000
34.418	0.000
34.422	0.000
34.425	0.000
34.428	0.000
34.431	0.000
34.434	0.000
34.438	0.000
34.441	0.000
34.444	0.000
34.447	0.000
34.450	0.000
34.454	0.000
34.457	0.000
34.460	0.000
34.463	0.000
34.467	0.000
34.470	0.000
34.473	0.000
34.476	0.000
34.479	0.000
34.483	0.000
34.486	0.000
34.489	0.000
34.492	0.000
34.495	0.000
34.499	0.000
34.502	0.000
34.505	0.000
34.508	0.000
34.511	0.000
34.515	0.000
34.518	0.000
34.521	0.000
34.524	0.000
34.528	0.000
34.531	0.000
34.534	0.000
34.537	0.000
34.540	0.000
34.544	0.000
34.547	0.000
34.550	0.000
34.553	0.000
34.556	0.000
34.560	0.000
34.563	0.000
34.566	0.000
34.569	0.000
34.572	0.000
34.576	0.000
34.579	0.000
34.582	0.000
34.585	0.000
34.589	0.000
34.592	0.000
34.595	0.000
34.598	0.000
34.601	0.000
34.605	0.000
34.608	0.000
34.611	0.000
34.614	0.000
34.617	0.000
34.621	0.000
34.624	0.000
34.627	0.000
34.630	0.000
34.633	0.000
34.637	0.000
34.640	0.000
34.643	0.000
34.646	0.000
34.650	0.000
34.653	0.000
34.656	0.000
34.659	0.000
34.662	0.000
34.666	0.000
34.669	0.000
34.672	0.000
34.675	0.000
34.678	0.000
34.682	0.000
34.685	0.000
34.688	0.000
34.691	0.000
34.694	0.000
34.698	0.000
34.701	0.000
34.704	0.000
34.707	0.000
34.711	0.000
34.714	0.000
34.717	0.000
34.720	0.000
34.723	0.000
34.727	0.000
34.730	0.000
34.733	0.000
34.736	0.000
34.739	0.000
34.743	0.000
34.746	0.000
34.749	0.000
34.752	0.000
34.756	0.000
34.759	0.000
34.762	0.000
34.765	0.000
34.768	0.000
34.772	0.000
34.775	0.000
34.778	0.000
34.781	0.000
34.784	0.000
34.788	0.000
34.791	0.000
34.794	0.000
34.797	0.000
34.800	0.000
34.804	0.000
34.807	0.000
34.810	0.000
34.813	0.000
34.817	0.000
34.820	0.000
34.823	0.000
34.826	0.000
34.829	0.000
34.833	0.000
34.836	0.000
34.839	0.000
34.842	0.000
34.845	0.000
34.849	0.000
34.852	0.000
34.855	0.000
34.858	0.000
34.861	0.000
34.865	0.000
34.868	0.000
34.871	0.000
34.874	0.000
34.878	0.000
34.881	0.000
34.884	0.000
34.887	0.000
34.890	0.000
34.894	0.000
34.897	0.000
34.900	0.000
34.903	0.000
34.906	0.000
34.910	0.000
34.913	0.000
34.916	0.000
34.919	0.000
34.922	0.000
34.926	0.000
34.929	0.000
34.932	0.000
34.935	0.000
34.939	0.000
34.942	0.000
34.945	0.000
34.948	0.000
34.951	0.000
34.955	0.000
34.958	0.000
34.961	0.000
34.964	0.000
34.967	0.000
34.971	0.000
34.974	0.000
34.977	0.000
34.980	0.000
34.983	0.000
34.987	0.000
34.990	0.000
34.993	0.000
34.996	0.000
35.000	0.000
35.003	0.000
35.006	0.000
35.009	0.000
35.012	0.000
35.016	0.000
35.019	0.000
35.022	0.000
35.025	0.000
35.028	0.000
35.032	0.000
35.035	0.000
35.038	0.000
35.041	0.000
35.044	0.000
35.048	0.000
35.051	0.000
35.054	0.000
35.057	0.000
35.061	0.000
35.064	0.000
35.067	0.000
35.070	0.000
35.073	0.000
35.077	0.000
35.080	0.000
35.083	0.000
35.086	0.000
35.089	0.000
35.093	0.000
35.096	0.000
35.099	0.000
35.102	0.000
35.106	0.000
35.109	0.000
35.112	0.000
35.115	0.000
35.118	0.000
35.122	0.000
35.125	0.000
35.128	0.000
35.131	0.000
35.134	0.000
35.138	0.000
35.141	0.000
35.144	0.000
35.147	0.000
35.150	0.000
35.154	0.000
35.157	0.000
35.160	0.000
35.163	0.000
35.167	0.000
35.170	0.000
35.173	0.000
35.176	0.000
35.179	0.000
35.183	0.000
35.186	0.000
35.189	0.000
35.192	0.000
35.195	0.000
35.199	0.000
35.202	0.000
35.205	0.000
35.208	0.000
35.211	0.000
35.215	0.000
35.218	0.000
35.221	0.000
35.224	0.000
35.228	0.000
35.231	0.000
35.234	0.000
35.237	0.000
35.240	0.000
35.244	0.000
35.247	0.000
35.250	0.000
35.253	0.000
35.256	0.000
35.260	0.000
35.263	0.000
35.266	0.000
35.269	0.000
35.272	0.000
35.276	0.000
35.279	0.000
35.282	0.000
35.285	0.000
35.289	0.000
35.292	0.000
35.295	0.000
35.298	0.000
35.301	0.000
35.305	0.000
35.308	0.000
35.311	0.000
35.314	0.000
35.317	0.000
35.321	0.000
35.324	0.000
35.327	0.000
35.330	0.000
35.333	0.000
35.337	0.000
35.340	0.000
35.343	0.000
35.346	0.000
35.350	0.000
35.353	0.000
35.356	0.000
35.359	0.000
35.362	0.000
35.366	0.000
35.369	0.000
35.372	0.000
35.375	0.000
35.378	0.000
35.382	0.000
35.385	0.000
35.388	0.000
35.391	0.000
35.394	0.000
35.398	0.000
35.401	0.000
35.404	0.000
35.407	0.000
35.411	0.000
35.414	0.000
35.417	0.000
35.420	0.000
35.423	0.000
35.427	0.000
35.430	0.000
35.433	0.000
35.436	0.000
35.439	0.000
35.443	0.000
35.446	0.000
35.449	0.000
35.452	0.000
35.456	0.000
35.459	0.000
35.462	0.000
35.465	0.000
35.468	0.000
35.472	0.000
35.475	0.000
35.478	0.000
35.481	0.000
35.484	0.000
35.488	0.000
35.491	0.000
35.494	0.000
35.497	0.000
35.500	0.000
35.504	0.000
35.507	0.000
35.510	0.000
35.513	0.000
35.517	0.000
35.520	0.000
35.523	0.000
35.526	0.000
35.529	0.000
35.533	0.000
35.536	0.000
35.539	0.000
35.542	0.000
35.545	0.000
35.549	0.000
35.552	0.000
35.555	0.000
35.558	0.000
35.561	0.000
35.565	0.000
35.568	0.000
35.571	0.000
35.574	0.000
35.578	0.000
35.581	0.000
35.584	0.000
35.587	0.000
35.590	0.000
35.594	0.000
35.597	0.000
35.600	0.000
35.603	0.000
35.606	0.000
35.610	0.000
35.613	0.000
35.616	0.000
35.619	0.000
35.622	0.000
35.626	0.000
35.629	0.000
35.632	0.000
35.635	0.000
35.639	0.000
35.642	0.000
35.645	0.000
35.648	0.000
35.651	0.000
35.655	0.000
35.658	0.000
35.661	0.000
35.664	0.000
35.667	0.000
35.671	0.000
35.674	0.000
35.677	0.000
35.680	0.000
35.683	0.000
35.687	0.000
35.690	0.000
35.693	0.000
35.696	0.000
35.700	0.000
35.703	0.000
35.706	0.000
35.709	0.000
35.712	0.000
35.716	0.000
35.719	0.000
35.722	0.000
35.725	0.000
35.728	0.000
35.732	0.000
35.735	0.000
35.738	0.000
35.741	0.000
35.744	0.000
35.748	0.000
35.751	0.000
35.754	0.000
35.757	0.000
35.761	0.000
35.764	0.000
35.767	0.000
35.770	0.000
35.773	0.000
35.777	0.000
35.780	0.000
35.783	0.000
35.786	0.000
35.789	0.000
35.793	0.000
35.796	0.000
35.799	0.000
35.802	0.000
35.806	0.000
35.809	0.000
35.812	0.000
35.815	0.000
35.818	0.000
35.822	0.000
35.825	0.000
35.828	0.000
35.831	0.000
35.834	0.000
35.838	0.000
35.841	0.000
35.844	0.000
35.847	0.000
35.850	0.000
35.854	0.000
35.857	0.000
35.860	0.000
35.863	0.000
35.867	0.000
35.870	0.000
35.873	0.000
35.876	0.000
35.879	0.000
35.883	0.000
35.886	0.000
35.889	0.000
35.892	0.000
35.895	0.000
35.899	0.000
35.902	0.000
35.905	0.000
35.908	0.000
35.911	0.000
35.915	0.000
35.918	0.000
35.921	0.000
35.924	0.000
35.928	0.000
35.931	0.000
35.934	0.000
35.937	0.000
35.940	0.000
35.944	0.000
35.947	0.000
35.950	0.000
35.953	0.000
35.956	0.000
35.960	0.000
35.963	0.000
35.966	0.000
35.969	0.000
35.972	0.000
35.976	0.000
35.979	0.000
35.982	0.000
35.985	0.000
35.989	0.000
35.992	0.000
35.995	0.000
35.998	0.000
36.001	0.000
36.005	0.000
36.008	0.000
36.011	0.000
36.014	0.000
36.017	0.000
36.021	0.000
36.024	0.000
36.027	0.000
36.030	0.000
36.033	0.000
36.037	0.000
36.040	0.000
36.043	0.000
36.046	0.000
36.050	0.000
36.053	0.000
36.056	0.000
36.059	0.000
36.062	0.000
36.066	0.000
36.069	0.000
36.072	0.000
36.075	0.000
36.078	0.000
36.082	0.000
36.085	0.000
36.088	0.000
36.091	0.000
36.094	0.000
36.098	0.000
36.101	0.000
36.104	0.000
36.107	0.000
36.111	0.000
36.114	0.000
36.117	0.000
36.120	0.000
36.123	0.000
36.127	0.000
36.130	0.000
36.133	0.000
36.136	0.000
36.139	0.000
36.143	0.000
36.146	0.000
36.149	0.000
36.152	0.000
36.156	0.000
36.159	0.000
36.162	0.000
36.165	0.000
36.168	0.000
36.172	0.000
36.175	0.000
36.178	0.000
36.181	0.000
36.184	0.000
36.188	0.000
36.191	0.000
36.194	0.000
36.197	0.000
36.200	0.000
36.204	0.000
36.207	0.000
36.210	0.000
36.213	0.000
36.217	0.000
36.220	0.000
36.223	0.000
36.226	0.000
36.229	0.000
36.233	0.000
36.236	0.000
36.239	0.000
36.242	0.000
36.245	0.000
36.249	0.000
36.252	0.000
36.255	0.000
36.258	0.000
36.261	0.000
36.265	0.000
36.268	0.000
36.271	0.000
36.274	0.000
36.278	0.000
36.281	0.000
36.284	0.000
36.287	0.000
36.290	0.000
36.294	0.000
36.297	0.000
36.300	0.000
36.303	0.000
36.306	0.000
36.310	0.000
36.313	0.000
36.316	0.000
36.319	0.000
36.322	0.000
36.326	0.000
36.329	0.000
36.332	0.000
36.335	0.000
36.339	0.000
36.342	0.000
36.345	0.000
36.348	0.000
36.351	0.000
36.355	0.000
36.358	0.000
36.361	0.000
36.364	0.000
36.367	0.000
36.371	0.000
36.374	0.000
36.377	0.000
36.380	0.000
36.383	0.000
36.387	0.000
36.390	0.000
36.393	0.000
36.396	0.000
36.400	0.000
36.403	0.000
36.406	0.000
36.409	0.000
36.412	0.000
36.416	0.000
36.419	0.000
36.422	0.000
36.425	0.000
36.428	0.000
36.432	0.000
36.435	0.000
36.438	0.000
36.441	0.000
36.444	0.000
36.448	0.000
36.451	0.000
36.454	0.000
36.457	0.000
36.461	0.000
36.464	0.000
36.467	0.000
36.470	0.000
36.473	0.000
36.477	0.000
36.480	0.000
36.483	0.000
36.486	0.000
36.489	0.000
36.493	0.000
36.496	0.000
36.499	0.000
36.502	0.000
36.506	0.000
36.509	0.000
36.512	0.000
36.515	0.000
36.518	0.000
36.522	0.000
36.525	0.000
36.528	0.000
36.531	0.000
36.534	0.000
36.538	0.000
36.541	0.000
36.544	0.000
36.547	0.000
36.550	0.000
36.554	0.000
36.557	0.000
36.560	0.000
36.563	0.000
36.567	0.000
36.570	0.000
36.573	0.000
36.576	0.000
36.579	0.000
36.583	0.000
36.586	0.000
36.589	0.000
36.592	0.000
36.595	0.000
36.599	0.000
36.602	0.000
36.605	0.000
36.608	0.000
36.611	0.000
36.615	0.000
36.618	0.000
36.621	0.000
36.624	0.000
36.628	0.000
36.631	0.000
36.634	0.000
36.637	0.000
36.640	0.000
36.644	0.000
36.647	0.000
36.650	0.000
36.653	0.000
36.656	0.000
36.660	0.000
36.663	0.000
36.666	0.000
36.669	0.000
36.672	0.000
36.676	0.000
36.679	0.000
36.682	0.000
36.685	0.000
36.689	0.000
36.692	0.000
36.695	0.000
36.698	0.000
36.701	0.000
36.705	0.000
36.708	0.000
36.711	0.000
36.714	0.000
36.717	0.000
36.721	0.000
36.724	0.000
36.727	0.000
36.730	0.000
36.733	0.000
36.737	0.000
36.740	0.000
36.743	0.000
36.746	0.000
36.750	0.000
36.753	0.000
36.756	0.000
36.759	0.000
36.762	0.000
36.766	0.000
36.769	0.000
36.772	0.000
36.775	0.000
36.778	0.000
36.782	0.000
36.785	0.000
36.788	0.000
36.791	0.000
36.794	0.000
36.798	0.000
36.801	0.000
36.804	0.000
36.807	0.000
36.811	0.000
36.814	0.000
36.817	0.000
36.820	0.000
36.823	0.000
36.827	0.000
36.830	0.000
36.833	0.000
36.836	0.000
36.839	0.000
36.843	0.000
36.846	0.000
36.849	0.000
36.852	0.000
36.855	0.000
36.859	0.000
36.862	0.000
36.865	0.000
36.868	0.000
36.872	0.000
36.875	0.000
36.878	0.000
36.881	0.000
36.884	0.000
36.888	0.000
36.891	0.000
36.894	0.000
36.897	0.000
36.900	0.000
36.904	0.000
36.907	0.000
36.910	0.000
36.913	0.000
36.917	0.000
36.920	0.000
36.923	0.000
36.926	0.000
36.929	0.000
36.933	0.000
36.936	0.000
36.939	0.000
36.942	0.000
36.945	0.000
36.949	0.000
36.952	0.000
36.955	0.000
36.958	0.000
36.961	0.000
36.965	0.000
36.968	0.000
36.971	0.000
36.974	0.000
36.978	0.000
36.981	0.000
36.984	0.000
36.987	0.000
36.990	0.000
36.994	0.000
36.997	0.000
37.000	0.000
37.003	0.000
37.006	0.000
37.010	0.000
37.013	0.000
37.016	0.000
37.019	0.000
37.022	0.000
37.026	0.000
37.029	0.000
37.032	0.000
37.035	0.000
37.039	0.000
37.042	0.000
37.045	0.000
37.048	0.000
37.051	0.000
37.055	0.000
37.058	0.000
37.061	0.000
37.064	0.000
37.067	0.000
37.071	0.000
37.074	0.000
37.077	0.000
37.080	0.000
37.083	0.000
37.087	0.000
37.090	0.000
37.093	0.000
37.096	0.000
37.100	0.000
37.103	0.000
37.106	0.000
37.109	0.000
37.112	0.000
37.116	0.000
37.119	0.000
37.122	0.000
37.125	0.000
37.128	0.000
37.132	0.000
37.135	0.000
37.138	0.000
37.141	0.000
37.144	0.000
37.148	0.000
37.151	0.000
37.154	0.000
37.157	0.000
37.161	0.000
37.164	0.000
37.167	0.000
37.170	0.000
37.173	0.000
37.177	0.000
37.180	0.000
37.183	0.000
37.186	0.000
37.189	0.000
37.193	0.000
37.196	0.000
37.199	0.000
37.202	0.000
37.205	0.000
37.209	0.000
37.212	0.000
37.215	0.000
37.218	0.000
37.222	0.000
37.225	0.000
37.228	0.000
37.231	0.000
37.234	0.000
37.238	0.000
37.241	0.000
37.244	0.000
37.247	0.000
37.250	0.000
37.254	0.000
37.257	0.000
37.260	0.000
37.263	0.000
37.267	0.000
37.270	0.000
37.273	0.000
37.276	0.000
37.279	0.000
37.283	0.000
37.286	0.000
37.289	0.000
37.292	0.000
37.295	0.000
37.299	0.000
37.302	0.000
37.305	0.000
37.308	0.000
37.311	0.000
37.315	0.000
37.318	0.000
37.321	0.000
37.324	0.000
37.328	0.000
37.331	0.000
37.334	0.000
37.337	0.000
37.340	0.000
37.344	0.000
37.347	0.000
37.350	0.000
37.353	0.000
37.356	0.000
37.360	0.000
37.363	0.000
37.366	0.000
37.369	0.000
37.372	0.000
37.376	0.000
37.379	0.000
37.382	0.000
37.385	0.000
37.389	0.000
37.392	0.000
37.395	0.000
37.398	0.000
37.401	0.000
37.405	0.000
37.408	0.000
37.411	0.000
37.414	0.000
37.417	0.000
37.421	0.000
37.424	0.000
37.427	0.000
37.430	0.000
37.433	0.000
37.437	0.000
37.440	0.000
37.443	0.000
37.446	0.000
37.450	0.000
37.453	0.000
37.456	0.000
37.459	0.000
37.462	0.000
37.466	0.000
37.469	0.000
37.472	0.000
37.475	0.000
37.478	0.000
37.482	0.000
37.485	0.000
37.488	0.000
37.491	0.000
37.494	0.000
37.498	0.000
37.501	0.000
37.504	0.000
37.507	0.000
37.511	0.000
37.514	0.000
37.517	0.000
37.520	0.000
37.523	0.000
37.527	0.000
37.530	0.000
37.533	0.000
37.536	0.000
37.539	0.000
37.543	0.000
37.546	0.000
37.549	0.000
37.552	0.000
37.555	0.000
37.559	0.000
37.562	0.000
37.565	0.000
37.568	0.000
37.572	0.000
37.575	0.000
37.578	0.000
37.581	0.000
37.584	0.000
37.588	0.000
37.591	0.000
37.594	0.000
37.597	0.000
37.600	0.000
37.604	0.000
37.607	0.000
37.610	0.000
37.613	0.000
37.617	0.000
37.620	0.000
37.623	0.000
37.626	0.000
37.629	0.000
37.633	0.000
37.636	0.000
37.639	0.000
37.642	0.000
37.645	0.000
37.649	0.000
37.652	0.000
37.655	0.000
37.658	0.000
37.661	0.000
37.665	0.000
37.668	0.000
37.671	0.000
37.674	0.000
37.678	0.000
37.681	0.000
37.684	0.000
37.687	0.000
37.690	0.000
37.694	0.000
37.697	0.000
37.700	0.000
37.703	0.000
37.706	0.000
37.710	0.000
37.713	0.000
37.716	0.000
37.719	0.000
37.722	0.000
37.726	0.000
37.729	0.000
37.732	0.000
37.735	0.000
37.739	0.000
37.742	0.000
37.745	0.000
37.748	0.000
37.751	0.000
37.755	0.000
37.758	0.000
37.761	0.000
37.764	0.000
37.767	0.000
37.771	0.000
37.774	0.000
37.777	0.000
37.780	0.000
37.783	0.000
37.787	0.000
37.790	0.000
37.793	0.000
37.796	0.000
37.800	0.000
37.803	0.000
37.806	0.000
37.809	0.000
37.812	0.000
37.816	0.000
37.819	0.000
37.822	0.000
37.825	0.000
37.828	0.000
37.832	0.000
37.835	0.000
37.838	0.000
37.841	0.000
37.844	0.000
37.848	0.000
37.851	0.000
37.854	0.000
37.857	0.000
37.861	0.000
37.864	0.000
37.867	0.000
37.870	0.000
37.873	0.000
37.877	0.000
37.880	0.000
37.883	0.000
37.886	0.000
37.889	0.000
37.893	0.000
37.896	0.000
37.899	0.000
37.902	0.000
37.905	0.000
37.909	0.000
37.912	0.000
37.915	0.000
37.918	0.000
37.922	0.000
37.925	0.000
37.928	0.000
37.931	0.000
37.934	0.000
37.938	0.000
37.941	0.000
37.944	0.000
37.947	0.000
37.950	0.000
37.954	0.000
37.957	0.000
37.960	0.000
37.963	0.000
37.967	0.000
37.970	0.000
37.973	0.000
37.976	0.000
37.979	0.000
37.983	0.000
37.986	0.000
37.989	0.000
37.992	0.000
37.995	0.000
37.999	0.000
38.002	0.000
38.005	0.000
38.008	0.000
38.011	0.000
38.015	0.000
38.018	0.000
38.021	0.000
38.024	0.000
38.028	0.000
38.031	0.000
38.034	0.000
38.037	0.000
38.040	0.000
38.044	0.000
38.047	0.000
38.050	0.000
38.053	0.000
38.056	0.000
38.060	0.000
38.063	0.000
38.066	0.000
38.069	0.000
38.072	0.000
38.076	0.000
38.079	0.000
38.082	0.000
38.085	0.000
38.089	0.000
38.092	0.000
38.095	0.000
38.098	0.000
38.101	0.000
38.105	0.000
38.108	0.000
38.111	0.000
38.114	0.000
38.117	0.000
38.121	0.000
38.124	0.000
38.127	0.000
38.130	0.000
38.133	0.000
38.137	0.000
38.140	0.000
38.143	0.000
38.146	0.000
38.150	0.000
38.153	0.000
38.156	0.000
38.159	0.000
38.162	0.000
38.166	0.000
38.169	0.000
38.172	0.000
38.175	0.000
38.178	0.000
38.182	0.000
38.185	0.000
38.188	0.000
38.191	0.000
38.194	0.000
38.198	0.000
38.201	0.000
38.204	0.000
38.207	0.000
38.211	0.000
38.214	0.000
38.217	0.000
38.220	0.000
38.223	0.000
38.227	0.000
38.230	0.000
38.233	0.000
38.236	0.000
38.239	0.000
38.243	0.000
38.246	0.000
38.249	0.000
38.252	0.000
38.255	0.000
38.259	0.000
38.262	0.000
38.265	0.000
38.268	0.000
38.272	0.000
38.275	0.000
38.278	0.000
38.281	0.000
38.284	0.000
38.288	0.000
38.291	0.000
38.294	0.000
38.297	0.000
38.300	0.000
38.304	0.000
38.307	0.000
38.310	0.000
38.313	0.000
38.317	0.000
38.320	0.000
38.323	0.000
38.326	0.000
38.329	0.000
38.333	0.000
38.336	0.000
38.339	0.000
38.342	0.000
38.345	0.000
38.349	0.000
38.352	0.000
38.355	0.000
38.358	0.000
38.361	0.000
38.365	0.000
38.368	0.000
38.371	0.000
38.374	0.000
38.378	0.000
38.381	0.000
38.384	0.000
38.387	0.000
38.390	0.000
38.394	0.000
38.397	0.000
38.400	0.000
38.403	0.000
38.406	0.000
38.410	0.000
38.413	0.000
38.416	0.000
38.419	0.000
38.422	0.000
38.426	0.000
38.429	0.000
38.432	0.000
38.435	0.000
38.439	0.000
38.442	0.000
38.445	0.000
38.448	0.000
38.451	0.000
38.455	0.000
38.458	0.000
38.461	0.000
38.464	0.000
38.467	0.000
38.471	0.000
38.474	0.000
38.477	0.000
38.480	0.000
38.483	0.000
38.487	0.000
38.490	0.000
38.493	0.000
38.496	0.000
38.500	0.000
38.503	0.000
38.506	0.000
38.509	0.000
38.512	0.000
38.516	0.000
38.519	0.000
38.522	0.000
38.525	0.000
38.528	0.000
38.532	0.000
38.535	0.000
38.538	0.000
38.541	0.000
38.544	0.000
38.548	0.000
38.551	0.000
38.554	0.000
38.557	0.000
38.561	0.000
38.564	0.000
38.567	0.000
38.570	0.000
38.573	0.000
38.577	0.000
38.580	0.000
38.583	0.000
38.586	0.000
38.589	0.000
38.593	0.000
38.596	0.000
38.599	0.000
38.602	0.000
38.605	0.000
38.609	0.000
38.612	0.000
38.615	0.000
38.618	0.000
38.622	0.000
38.625	0.000
38.628	0.000
38.631	0.000
38.634	0.000
38.638	0.000
38.641	0.000
38.644	0.000
38.647	0.000
38.650	0.000
38.654	0.000
38.657	0.000
38.660	0.000
38.663	0.000
38.667	0.000
38.670	0.000
38.673	0.000
38.676	0.000
38.679	0.000
38.683	0.000
38.686	0.000
38.689	0.000
38.692	0.000
38.695	0.000
38.699	0.000
38.702	0.000
38.705	0.000
38.708	0.000
38.711	0.000
38.715	0.000
38.718	0.000
38.721	0.000
38.724	0.000
38.728	0.000
38.731	0.000
38.734	0.000
38.737	0.000
38.740	0.000
38.744	0.000
38.747	0.000
38.750	0.000
38.753	0.000
38.756	0.000
38.760	0.000
38.763	0.000
38.766	0.000
38.769	0.000
38.772	0.000
38.776	0.000
38.779	0.000
38.782	0.000
38.785	0.000
38.789	0.000
38.792	0.000
38.795	0.000
38.798	0.000
38.801	0.000
38.805	0.000
38.808	0.000
38.811	0.000
38.814	0.000
38.817	0.000
38.821	0.000
38.824	0.000
38.827	0.000
38.830	0.000
38.833	0.000
38.837	0.000
38.840	0.000
38.843	0.000
38.846	0.000
38.850	0.000
38.853	0.000
38.856	0.000
38.859	0.000
38.862	0.000
38.866	0.000
38.869	0.000
38.872	0.000
38.875	0.000
38.878	0.000
38.882	0.000
38.885	0.000
38.888	0.000
38.891	0.000
38.894	0.000
38.898	0.000
38.901	0.000
38.904	0.000
38.907	0.000
38.911	0.000
38.914	0.000
38.917	0.000
38.920	0.000
38.923	0.000
38.927	0.000
38.930	0.000
38.933	0.000
38.936	0.000
38.939	0.000
38.943	0.000
38.946	0.000
38.949	0.000
38.952	0.000
38.955	0.000
38.959	0.000
38.962	0.000
38.965	0.000
38.968	0.000
38.972	0.000
38.975	0.000
38.978	0.000
38.981	0.000
38.984	0.000
38.988	0.000
38.991	0.000
38.994	0.000
38.997	0.000
39.000	0.000
39.004	0.000
39.007	0.000
39.010	0.000
39.013	0.000
39.017	0.000
39.020	0.000
39.023	0.000
39.026	0.000
39.029	0.000
39.033	0.000
39.036	0.000
39.039	0.000
39.042	0.000
39.045	0.000
39.049	0.000
39.052	0.000
39.055	0.000
39.058	0.000
39.061	0.000
39.065	0.000
39.068	0.000
39.071	0.000
39.074	0.000
39.078	0.000
39.081	0.000
39.084	0.000
39.087	0.000
39.090	0.000
39.094	0.000
39.097	0.000
39.100	0.000
39.103	0.000
39.106	0.000
39.110	0.000
39.113	0.000
39.116	0.000
39.119	0.000
39.122	0.000
39.126	0.000
39.129	0.000
39.132	0.000
39.135	0.000
39.139	0.000
39.142	0.000
39.145	0.000
39.148	0.000
39.151	0.000
39.155	0.000
39.158	0.000
39.161	0.000
39.164	0.000
39.167	0.000
39.171	0.000
39.174	0.000
39.177	0.000
39.180	0.000
39.183	0.000
39.187	0.000
39.190	0.000
39.193	0.000
39.196	0.000
39.200	0.000
39.203	0.000
39.206	0.000
39.209	0.000
39.212	0.000
39.216	0.000
39.219	0.000
39.222	0.000
39.225	0.000
39.228	0.000
39.232	0.000
39.235	0.000
39.238	0.000
39.241	0.000
39.244	0.000
39.248	0.000
39.251	0.000
39.254	0.000
39.257	0.000
39.261	0.000
39.264	0.000
39.267	0.000
39.270	0.000
39.273	0.000
39.277	0.000
39.280	0.000
39.283	0.000
39.286	0.000
39.289	0.000
39.293	0.000
39.296	0.000
39.299	0.000
39.302	0.000
39.305	0.000
39.309	0.000
39.312	0.000
39.315	0.000
39.318	0.000
39.322	0.000
39.325	0.000
39.328	0.000
39.331	0.000
39.334	0.000
39.338	0.000
39.341	0.000
39.344	0.000
39.347	0.000
39.350	0.000
39.354	0.000
39.357	0.000
39.360	0.000
39.363	0.000
39.367	0.000
39.370	0.000
39.373	0.000
39.376	0.000
39.379	0.000
39.383	0.000
39.386	0.000
39.389	0.000
39.392	0.000
39.395	0.000
39.399	0.000
39.402	0.000
39.405	0.000
39.408	0.000
39.411	0.000
39.415	0.000
39.418	0.000
39.421	0.000
39.424	0.000
39.428	0.000
39.431	0.000
39.434	0.000
39.437	0.000
39.440	0.000
39.444	0.000
39.447	0.000
39.450	0.000
39.453	0.000
39.456	0.000
39.460	0.000
39.463	0.000
39.466	0.000
39.469	0.000
39.472	0.000
39.476	0.000
39.479	0.000
39.482	0.000
39.485	0.000
39.489	0.000
39.492	0.000
39.495	0.000
39.498	0.000
39.501	0.000
39.505	0.000
39.508	0.000
39.511	0.000
39.514	0.000
39.517	0.000
39.521	0.000
39.524	0.000
39.527	0.000
39.530	0.000
39.533	0.000
39.537	0.000
39.540	0.000
39.543	0.000
39.546	0.000
39.550	0.000
39.553	0.000
39.556	0.000
39.559	0.000
39.562	0.000
39.566	0.000
39.569	0.000
39.572	0.000
39.575	0.000
39.578	0.000
39.582	0.000
39.585	0.000
39.588	0.000
39.591	0.000
39.594	0.000
39.598	0.000
39.601	0.000
39.604	0.000
39.607	0.000
39.611	0.000
39.614	0.000
39.617	0.000
39.620	0.000
39.623	0.000
39.627	0.000
39.630	0.000
39.633	0.000
39.636	0.000
39.639	0.000
39.643	0.000
39.646	0.000
39.649	0.000
39.652	0.000
39.655	0.000
39.659	0.000
39.662	0.000
39.665	0.000
39.668	0.000
39.672	0.000
39.675	0.000
39.678	0.000
39.681	0.000
39.684	0.000
39.688	0.000
39.691	0.000
39.694	0.000
39.697	0.000
39.700	0.000
39.704	0.000
39.707	0.000
39.710	0.000
39.713	0.000
39.717	0.000
39.720	0.000
39.723	0.000
39.726	0.000
39.729	0.000
39.733	0.000
39.736	0.000
39.739	0.000
39.742	0.000
39.745	0.000
39.749	0.000
39.752	0.000
39.755	0.000
39.758	0.000
39.761	0.000
39.765	0.000
39.768	0.000
39.771	0.000
39.774	0.000
39.778	0.000
39.781	0.000
39.784	0.000
39.787	0.000
39.790	0.000
39.794	0.000
39.797	0.000
39.800	0.000
39.803	0.000
39.806	0.000
39.810	0.000
39.813	0.000
39.816	0.000
39.819	0.000
39.822	0.000
39.826	0.000
39.829	0.000
39.832	0.000
39.835	0.000
39.839	0.000
39.842	0.000
39.845	0.000
39.848	0.000
39.851	0.000
39.855	0.000
39.858	0.000
39.861	0.000
39.864	0.000
39.867	0.000
39.871	0.000
39.874	0.000
39.877	0.000
39.880	0.000
39.883	0.000
39.887	0.000
39.890	0.000
39.893	0.000
39.896	0.000
39.900	0.000
39.903	0.000
39.906	0.000
39.909	0.000
39.912	0.000
39.916	0.000
39.919	0.000
39.922	0.000
39.925	0.000
39.928	0.000
39.932	0.000
39.935	0.000
39.938	0.000
39.941	0.000
39.944	0.000
39.948	0.000
39.951	0.000
39.954	0.000
39.957	0.000
39.961	0.000
39.964	0.000
39.967	0.000
39.970	0.000
39.973	0.000
39.977	0.000
39.980	0.000
39.983	0.000
39.986	0.000
39.989	0.000
39.993	0.000
39.996	0.000
39.999	0.000
40.002	0.000
40.005	0.000
40.009	0.000
40.012	0.000
40.015	0.000
40.018	0.000
40.022	0.000
40.025	0.000
40.028	0.000
40.031	0.000
40.034	0.000
40.038	0.000
40.041	0.000
40.044	0.000
40.047	0.000
40.050	0.000
40.054	0.000
40.057	0.000
40.060	0.000
40.063	0.000
40.067	0.000
40.070	0.000
40.073	0.000
40.076	0.000
40.079	0.000
40.083	0.000
40.086	0.000
40.089	0.000
40.092	0.000
40.095	0.000
40.099	0.000
40.102	0.000
40.105	0.000
40.108	0.000
40.111	0.000
40.115	0.000
40.118	0.000
40.121	0.000
40.124	0.000
40.128	0.000
40.131	0.000
40.134	0.000
40.137	0.000
40.140	0.000
40.144	0.000
40.147	0.000
40.150	0.000
40.153	0.000
40.156	0.000
40.160	0.000
40.163	0.000
40.166	0.000
40.169	0.000
40.172	0.000
40.176	0.000
40.179	0.000
40.182	0.000
40.185	0.000
40.189	0.000
40.192	0.000
40.195	0.000
40.198	0.000
40.201	0.000
40.205	0.000
40.208	0.000
40.211	0.000
40.214	0.000
40.217	0.000
40.221	0.000
40.224	0.000
40.227	0.000
40.230	0.000
40.233	0.000
40.237	0.000
40.240	0.000
40.243	0.000
40.246	0.000
40.250	0.000
40.253	0.000
40.256	0.000
40.259	0.000
40.262	0.000
40.266	0.000
40.269	0.000
40.272	0.000
40.275	0.000
40.278	0.000
40.282	0.000
40.285	0.000
40.288	0.000
40.291	0.000
40.294	0.000
40.298	0.000
40.301	0.000
40.304	0.000
40.307	0.000
40.311	0.000
40.314	0.000
40.317	0.000
40.320	0.000
40.323	0.000
40.327	0.000
40.330	0.000
40.333	0.000
40.336	0.000
40.339	0.000
40.343	0.000
40.346	0.000
40.349	0.000
40.352	0.000
40.355	0.000
40.359	0.000
40.362	0.000
40.365	0.000
40.368	0.000
40.372	0.000
40.375	0.000
40.378	0.000
40.381	0.000
40.384	0.000
40.388	0.000
40.391	0.000
40.394	0.000
40.397	0.000
40.400	0.000
40.404	0.000
40.407	0.000
40.410	0.000
40.413	0.000
40.416	0.000
40.420	0.000
40.423	0.000
40.426	0.000
40.429	0.000
40.433	0.000
40.436	0.000
40.439	0.000
40.442	0.000
40.445	0.000
40.449	0.000
40.452	0.000
40.455	0.000
40.458	0.000
40.461	0.000
40.465	0.000
40.468	0.000
40.471	0.000
40.474	0.000
40.478	0.000
40.481	0.000
40.484	0.000
40.487	0.000
40.490	0.000
40.494	0.000
40.497	0.000
40.500	0.000
40.503	0.000
40.506	0.000
40.510	0.000
40.513	0.000
40.516	0.000
40.519	0.000
40.522	0.000
40.526	0.000
40.529	0.000
40.532	0.000
40.535	0.000
40.539	0.000
40.542	0.000
40.545	0.000
40.548	0.000
40.551	0.000
40.555	0.000
40.558	0.000
40.561	0.000
40.564	0.000
40.567	0.000
40.571	0.000
40.574	0.000
40.577	0.000
40.580	0.000
40.583	0.000
40.587	0.000
40.590	0.000
40.593	0.000
40.596	0.000
40.600	0.000
40.603	0.000
40.606	0.000
40.609	0.000
40.612	0.000
40.616	0.000
40.619	0.000
40.622	0.000
40.625	0.000
40.628	0.000
40.632	0.000
40.635	0.000
40.638	0.000
40.641	0.000
40.644	0.000
40.648	0.000
40.651	0.000
40.654	0.000
40.657	0.000
40.661	0.000
40.664	0.000
40.667	0.000
40.670	0.000
40.673	0.000
40.677	0.000
40.680	0.000
40.683	0.000
40.686	0.000
40.689	0.000
40.693	0.000
40.696	0.000
40.699	0.000
40.702	0.000
40.705	0.000
40.709	0.000
40.712	0.000
40.715	0.000
40.718	0.000
40.722	0.000
40.725	0.000
40.728	0.000
40.731	0.000
40.734	0.000
40.738	0.000
40.741	0.000
40.744	0.000
40.747	0.000
40.750	0.000
40.754	0.000
40.757	0.000
40.760	0.000
40.763	0.000
40.766	0.000
40.770	0.000
40.773	0.000
40.776	0.000
40.779	0.000
40.783	0.000
40.786	0.000
40.789	0.000
40.792	0.000
40.795	0.000
40.799	0.000
40.802	0.000
40.805	0.000
40.808	0.000
40.811	0.000
40.815	0.000
40.818	0.000
40.821	0.000
40.824	0.000
40.828	0.000
40.831	0.000
40.834	0.000
40.837	0.000
40.840	0.000
40.844	0.000
40.847	0.000
40.850	0.000
40.853	0.000
40.856	0.000
40.860	0.000
40.863	0.000
40.866	0.000
40.869	0.000
40.872	0.000
40.876	0.000
40.879	0.000
40.882	0.000
40.885	0.000
40.889	0.000
40.892	0.000
40.895	0.000
40.898	0.000
40.901	0.000
40.905	0.000
40.908	0.000
40.911	0.000
40.914	0.000
40.917	0.000
40.921	0.000
40.924	0.000
40.927	0.000
40.930	0.000
40.933	0.000
40.937	0.000
40.940	0.000
40.943	0.000
40.946	0.000
40.950	0.000
40.953	0.000
40.956	0.000
40.959	0.000
40.962	0.000
40.966	0.000
40.969	0.000
40.972	0.000
40.975	0.000
40.978	0.000
40.982	0.000
40.985	0.000
40.988	0.000
40.991	0.000
40.994	0.000
40.998	0.000
41.001	0.000
41.004	0.000
41.007	0.000
41.011	0.000
41.014	0.000
41.017	0.000
41.020	0.000
41.023	0.000
41.027	0.000
41.030	0.000
41.033	0.000
41.036	0.000
41.039	0.000
41.043	0.000
41.046	0.000
41.049	0.000
41.052	0.000
41.055	0.000
41.059	0.000
41.062	0.000
41.065	0.000
41.068	0.000
41.072	0.000
41.075	0.000
41.078	0.000
41.081	0.000
41.084	0.000
41.088	0.000
41.091	0.000
41.094	0.000
41.097	0.000
41.100	0.000
41.104	0.000
41.107	0.000
41.110	0.000
41.113	0.000
41.116	0.000
41.120	0.000
41.123	0.000
41.126	0.000
41.129	0.000
41.133	0.000
41.136	0.000
41.139	0.000
41.142	0.000
41.145	0.000
41.149	0.000
41.152	0.000
41.155	0.000
41.158	0.000
41.161	0.000
41.165	0.000
41.168	0.000
41.171	0.000
41.174	0.000
41.178	0.000
41.181	0.000
41.184	0.000
41.187	0.000
41.190	0.000
41.194	0.000
41.197	0.000
41.200	0.000
41.203	0.000
41.206	0.000
41.210	0.000
41.213	0.000
41.216	0.000
41.219	0.000
41.222	0.000
41.226	0.000
41.229	0.000
41.232	0.000
41.235	0.000
41.239	0.000
41.242	0.000
41.245	0.000
41.248	0.000
41.251	0.000
41.255	0.000
41.258	0.000
41.261	0.000
41.264	0.000
41.267	0.000
41.271	0.000
41.274	0.000
41.277	0.000
41.280	0.000
41.283	0.000
41.287	0.000
41.290	0.000
41.293	0.000
41.296	0.000
41.300	0.000
41.303	0.000
41.306	0.000
41.309	0.000
41.312	0.000
41.316	0.000
41.319	0.000
41.322	0.000
41.325	0.000
41.328	0.000
41.332	0.000
41.335	0.000
41.338	0.000
41.341	0.000
41.344	0.000
41.348	0.000
41.351	0.000
41.354	0.000
41.357	0.000
41.361	0.000
41.364	0.000
41.367	0.000
41.370	0.000
41.373	0.000
41.377	0.000
41.380	0.000
41.383	0.000
41.386	0.000
41.389	0.000
41.393	0.000
41.396	0.000
41.399	0.000
41.402	0.000
41.405	0.000
41.409	0.000
41.412	0.000
41.415	0.000
41.418	0.000
41.422	0.000
41.425	0.000
41.428	0.000
41.431	0.000
41.434	0.000
41.438	0.000
41.441	0.000
41.444	0.000
41.447	0.000
41.450	0.000
41.454	0.000
41.457	0.000
41.460	0.000
41.463	0.000
41.466	0.000
41.470	0.000
41.473	0.000
41.476	0.000
41.479	0.000
41.483	0.000
41.486	0.000
41.489	0.000
41.492	0.000
41.495	0.000
41.499	0.000
41.502	0.000
41.505	0.000
41.508	0.000
41.511	0.000
41.515	0.000
41.518	0.000
41.521	0.000
41.524	0.000
41.528	0.000
41.531	0.000
41.534	0.000
41.537	0.000
41.540	0.000
41.544	0.000
41.547	0.000
41.550	0.000
41.553	0.000
41.556	0.000
41.560	0.000
41.563	0.000
41.566	0.000
41.569	0.000
41.572	0.000
41.576	0.000
41.579	0.000
41.582	0.000
41.585	0.000
41.589	0.000
41.592	0.000
41.595	0.000
41.598	0.000
41.601	0.000
41.605	0.000
41.608	0.000
41.611	0.000
41.614	0.000
41.617	0.000
41.621	0.000
41.624	0.000
41.627	0.000
41.630	0.000
41.633	0.000
41.637	0.000
41.640	0.000
41.643	0.000
41.646	0.000
41.650	0.000
41.653	0.000
41.656	0.000
41.659	0.000
41.662	0.000
41.666	0.000
41.669	0.000
41.672	0.000
41.675	0.000
41.678	0.000
41.682	0.000
41.685	0.000
41.688	0.000
41.691	0.000
41.694	0.000
41.698	0.000
41.701	0.000
41.704	0.000
41.707	0.000
41.711	0.000
41.714	0.000
41.717	0.000
41.720	0.000
41.723	0.000
41.727	0.000
41.730	0.000
41.733	0.000
41.736	0.000
41.739	0.000
41.743	0.000
41.746	0.000
41.749	0.000
41.752	0.000
41.755	0.000
41.759	0.000
41.762	0.000
41.765	0.000
41.768	0.000
41.772	0.000
41.775	0.000
41.778	0.000
41.781	0.000
41.784	0.000
41.788	0.000
41.791	0.000
41.794	0.000
41.797	0.000
41.800	0.000
41.804	0.000
41.807	0.000
41.810	0.000
41.813	0.000
41.816	0.000
41.820	0.000
41.823	0.000
41.826	0.000
41.829	0.000
41.833	0.000
41.836	0.000
41.839	0.000
41.842	0.000
41.845	0.000
41.849	0.000
41.852	0.000
41.855	0.000
41.858	0.000
41.861	0.000
41.865	0.000
41.868	0.000
41.871	0.000
41.874	0.000
41.878	0.000
41.881	0.000
41.884	0.000
41.887	0.000
41.890	0.000
41.894	0.000
41.897	0.000
41.900	0.000
41.903	0.000
41.906	0.000
41.910	0.000
41.913	0.000
41.916	0.000
41.919	0.000
41.922	0.000
41.926	0.000
41.929	0.000
41.932	0.000
41.935	0.000
41.939	0.000
41.942	0.000
41.945	0.000
41.948	0.000
41.951	0.000
41.955	0.000
41.958	0.000
41.961	0.000
41.964	0.000
41.967	0.000
41.971	0.000
41.974	0.000
41.977	0.000
41.980	0.000
41.983	0.000
41.987	0.000
41.990	0.000
41.993	0.000
41.996	0.000
42.000	0.000
42.003	0.000
42.006	0.000
42.009	0.000
42.012	0.000
42.016	0.000
42.019	0.000
42.022	0.000
42.025	0.000
42.028	0.000
42.032	0.000
42.035	0.000
42.038	0.000
42.041	0.000
42.044	0.000
42.048	0.000
42.051	0.000
42.054	0.000
42.057	0.000
42.061	0.000
42.064	0.000
42.067	0.000
42.070	0.000
42.073	0.000
42.077	0.000
42.080	0.000
42.083	0.000
42.086	0.000
42.089	0.000
42.093	0.000
42.096	0.000
42.099	0.000
42.102	0.000
42.105	0.000
42.109	0.000
42.112	0.000
42.115	0.000
42.118	0.000
42.122	0.000
42.125	0.000
42.128	0.000
42.131	0.000
42.134	0.000
42.138	0.000
42.141	0.000
42.144	0.000
42.147	0.000
42.150	0.000
42.154	0.000
42.157	0.000
42.160	0.000
42.163	0.000
42.166	0.000
42.170	0.000
42.173	0.000
42.176	0.000
42.179	0.000
42.183	0.000
42.186	0.000
42.189	0.000
42.192	0.000
42.195	0.000
42.199	0.000
42.202	0.000
42.205	0.000
42.208	0.000
42.211	0.000
42.215	0.000
42.218	0.000
42.221	0.000
42.224	0.000
42.228	0.000
42.231	0.000
42.234	0.000
42.237	0.000
42.240	0.000
42.244	0.000
42.247	0.000
42.250	0.000
42.253	0.000
42.256	0.000
42.260	0.000
42.263	0.000
42.266	0.000
42.269	0.000
42.272	0.000
42.276	0.000
42.279	0.000
42.282	0.000
42.285	0.000
42.289	0.000
42.292	0.000
42.295	0.000
42.298	0.000
42.301	0.000
42.305	0.000
42.308	0.000
42.311	0.000
42.314	0.000
42.317	0.000
42.321	0.000
42.324	0.000
42.327	0.000
42.330	0.000
42.333	0.000
42.337	0.000
42.340	0.000
42.343	0.000
42.346	0.000
42.350	0.000
42.353	0.000
42.356	0.000
42.359	0.000
42.362	0.000
42.366	0.000
42.369	0.000
42.372	0.000
42.375	0.000
42.378	0.000
42.382	0.000
42.385	0.000
42.388	0.000
42.391	0.000
42.394	0.000
42.398	0.000
42.401	0.000
42.404	0.000
42.407	0.000
42.411	0.000
42.414	0.000
42.417	0.000
42.420	0.000
42.423	0.000
42.427	0.000
42.430	0.000
42.433	0.000
42.436	0.000
42.439	0.000
42.443	0.000
42.446	0.000
42.449	0.000
42.452	0.000
42.455	0.000
42.459	0.000
42.462	0.000
42.465	0.000
42.468	0.000
42.472	0.000
42.475	0.000
42.478	0.000
42.481	0.000
42.484	0.000
42.488	0.000
42.491	0.000
42.494	0.000
42.497	0.000
42.500	0.000
42.504	0.000
42.507	0.000
42.510	0.000
42.513	0.000
42.516	0.000
42.520	0.000
42.523	0.000
42.526	0.000
42.529	0.000
42.533	0.000
42.536	0.000
42.539	0.000
42.542	0.000
42.545	0.000
42.549	0.000
42.552	0.000
42.555	0.000
42.558	0.000
42.561	0.000
42.565	0.000
42.568	0.000
42.571	0.000
42.574	0.000
42.578	0.000
42.581	0.000
42.584	0.000
42.587	0.000
42.590	0.000
42.594	0.000
42.597	0.000
42.600	0.000
42.603	0.000
42.606	0.000
42.610	0.000
42.613	0.000
42.616	0.000
42.619	0.000
42.622	0.000
42.626	0.000
42.629	0.000
42.632	0.000
42.635	0.000
42.639	0.000
42.642	0.000
42.645	0.000
42.648	0.000
42.651	0.000
42.655	0.000
42.658	0.000
42.661	0.000
42.664	0.000
42.667	0.000
42.671	0.000
42.674	0.000
42.677	0.000
42.680	0.000
42.683	0.000
42.687	0.000
42.690	0.000
42.693	0.000
42.696	0.000
42.700	0.000
42.703	0.000
42.706	0.000
42.709	0.000
42.712	0.000
42.716	0.000
42.719	0.000
42.722	0.000
42.725	0.000
42.728	0.000
42.732	0.000
42.735	0.000
42.738	0.000
42.741	0.000
42.744	0.000
42.748	0.000
42.751	0.000
42.754	0.000
42.757	0.000
42.761	0.000
42.764	0.000
42.767	0.000
42.770	0.000
42.773	0.000
42.777	0.000
42.780	0.000
42.783	0.000
42.786	0.000
42.789	0.000
42.793	0.000
42.796	0.000
42.799	0.000
42.802	0.000
42.805	0.000
42.809	0.000
42.812	0.000
42.815	0.000
42.818	0.000
42.822	0.000
42.825	0.000
42.828	0.000
42.831	0.000
42.834	0.000
42.838	0.000
42.841	0.000
42.844	0.000
42.847	0.000
42.850	0.000
42.854	0.000
42.857	0.000
42.860	0.000
42.863	0.000
42.866	0.000
42.870	0.000
42.873	0.000
42.876	0.000
42.879	0.000
42.883	0.000
42.886	0.000
42.889	0.000
42.892	0.000
42.895	0.000
42.899	0.000
42.902	0.000
42.905	0.000
42.908	0.000
42.911	0.000
42.915	0.000
42.918	0.000
42.921	0.000
42.924	0.000
42.928	0.000
42.931	0.000
42.934	0.000
42.937	0.000
42.940	0.000
42.944	0.000
42.947	0.000
42.950	0.000
42.953	0.000
42.956	0.000
42.960	0.000
42.963	0.000
42.966	0.000
42.969	0.000
42.972	0.000
42.976	0.000
42.979	0.000
42.982	0.000
42.985	0.000
42.989	0.000
42.992	0.000
42.995	0.000
42.998	0.000
43.001	0.000
43.005	0.000
43.008	0.000
43.011	0.000
43.014	0.000
43.017	0.000
43.021	0.000
43.024	0.000
43.027	0.000
43.030	0.000
43.033	0.000
43.037	0.000
43.040	0.000
43.043	0.000
43.046	0.000
43.050	0.000
43.053	0.000
43.056	0.000
43.059	0.000
43.062	0.000
43.066	0.000
43.069	0.000
43.072	0.000
43.075	0.000
43.078	0.000
43.082	0.000
43.085	0.000
43.088	0.000
43.091	0.000
43.094	0.000
43.098	0.000
43.101	0.000
43.104	0.000
43.107	0.000
43.111	0.000
43.114	0.000
43.117	0.000
43.120	0.000
43.123	0.000
43.127	0.000
43.130	0.000
43.133	0.000
43.136	0.000
43.139	0.000
43.143	0.000
43.146	0.000
43.149	0.000
43.152	0.000
43.155	0.000
43.159	0.000
43.162	0.000
43.165	0.000
43.168	0.000
43.172	0.000
43.175	0.000
43.178	0.000
43.181	0.000
43.184	0.000
43.188	0.000
43.191	0.000
43.194	0.000
43.197	0.000
43.200	0.000
43.204	0.000
43.207	0.000
43.210	0.000
43.213	0.000
43.216	0.000
43.220	0.000
43.223	0.000
43.226	0.000
43.229	0.000
43.233	0.000
43.236	0.000
43.239	0.000
43.242	0.000
43.245	0.000
43.249	0.000
43.252	0.000
43.255	0.000
43.258	0.000
43.261	0.000
43.265	0.000
43.268	0.000
43.271	0.000
43.274	0.000
43.278	0.000
43.281	0.000
43.284	0.000
43.287	0.000
43.290	0.000
43.294	0.000
43.297	0.000
43.300	0.000
43.303	0.000
43.306	0.000
43.310	0.000
43.313	0.000
43.316	0.000
43.319	0.000
43.322	0.000
43.326	0.000
43.329	0.000
43.332	0.000
43.335	0.000
43.339	0.000
43.342	0.000
43.345	0.000
43.348	0.000
43.351	0.000
43.355	0.000
43.358	0.000
43.361	0.000
43.364	0.000
43.367	0.000
43.371	0.000
43.374	0.000
43.377	0.000
43.380	0.000
43.383	0.000
43.387	0.000
43.390	0.000
43.393	0.000
43.396	0.000
43.400	0.000
43.403	0.000
43.406	0.000
43.409	0.000
43.412	0.000
43.416	0.000
43.419	0.000
43.422	0.000
43.425	0.000
43.428	0.000
43.432	0.000
43.435	0.000
43.438	0.000
43.441	0.000
43.444	0.000
43.448	0.000
43.451	0.000
43.454	0.000
43.457	0.000
43.461	0.000
43.464	0.000
43.467	0.000
43.470	0.000
43.473	0.000
43.477	0.000
43.480	0.000
43.483	0.000
43.486	0.000
43.489	0.000
43.493	0.000
43.496	0.000
43.499	0.000
43.502	0.000
43.505	0.000
43.509	0.000
43.512	0.000
43.515	0.000
43.518	0.000
43.522	0.000
43.525	0.000
43.528	0.000
43.531	0.000
43.534	0.000
43.538	0.000
43.541	0.000
43.544	0.000
43.547	0.000
43.550	0.000
43.554	0.000
43.557	0.000
43.560	0.000
43.563	0.000
43.566	0.000
43.570	0.000
43.573	0.000
43.576	0.000
43.579	0.000
43.583	0.000
43.586	0.000
43.589	0.000
43.592	0.000
43.595	0.000
43.599	0.000
43.602	0.000
43.605	0.000
43.608	0.000
43.611	0.000
43.615	0.000
43.618	0.000
43.621	0.000
43.624	0.000
43.627	0.000
43.631	0.000
43.634	0.000
43.637	0.000
43.640	0.000
43.644	0.000
43.647	0.000
43.650	0.000
43.653	0.000
43.656	0.000
43.660	0.000
43.663	0.000
43.666	0.000
43.669	0.000
43.672	0.000
43.676	0.000
43.679	0.000
43.682	0.000
43.685	0.000
43.689	0.000
43.692	0.000
43.695	0.000
43.698	0.000
43.701	0.000
43.705	0.000
43.708	0.000
43.711	0.000
43.714	0.000
43.717	0.000
43.721	0.000
43.724	0.000
43.727	0.000
43.730	0.000
43.733	0.000
43.737	0.000
43.740	0.000
43.743	0.000
43.746	0.000
43.750	0.000
43.753	0.000
43.756	0.000
43.759	0.000
43.762	0.000
43.766	0.000
43.769	0.000
43.772	0.000
43.775	0.000
43.778	0.000
43.782	0.000
43.785	0.000
43.788	0.000
43.791	0.000
43.794	0.000
43.798	0.000
43.801	0.000
43.804	0.000
43.807	0.000
43.811	0.000
43.814	0.000
43.817	0.000
43.820	0.000
43.823	0.000
43.827	0.000
43.830	0.000
43.833	0.000
43.836	0.000
43.839	0.000
43.843	0.000
43.846	0.000
43.849	0.000
43.852	0.000
43.855	0.000
43.859	0.000
43.862	0.000
43.865	0.000
43.868	0.000
43.872	0.000
43.875	0.000
43.878	0.000
43.881	0.000
43.884	0.000
43.888	0.000
43.891	0.000
43.894	0.000
43.897	0.000
43.900	0.000
43.904	0.000
43.907	0.000
43.910	0.000
43.913	0.000
43.916	0.000
43.920	0.000
43.923	0.000
43.926	0.000
43.929	0.000
43.933	0.000
43.936	0.000
43.939	0.000
43.942	0.000
43.945	0.000
43.949	0.000
43.952	0.000
43.955	0.000
43.958	0.000
43.961	0.000
43.965	0.000
43.968	0.000
43.971	0.000
43.974	0.000
43.977	0.000
43.981	0.000
43.984	0.000
43.987	0.000
43.990	0.000
43.994	0.000
43.997	0.000
44.000	0.000
44.003	0.000
44.006	0.000
44.010	0.000
44.013	0.000
44.016	0.000
44.019	0.000
44.022	0.000
44.026	0.000
44.029	0.000
44.032	0.000
44.035	0.000
44.039	0.000
44.042	0.000
44.045	0.000
44.048	0.000
44.051	0.000
44.055	0.000
44.058	0.000
44.061	0.000
44.064	0.000
44.067	0.000
44.071	0.000
44.074	0.000
44.077	0.000
44.080	0.000
44.083	0.000
44.087	0.000
44.090	0.000
44.093	0.000
44.096	0.000
44.100	0.000
44.103	0.000
44.106	0.000
44.109	0.000
44.112	0.000
44.116	0.000
44.119	0.000
44.122	0.000
44.125	0.000
44.128	0.000
44.132	0.000
44.135	0.000
44.138	0.000
44.141	0.000
44.144	0.000
44.148	0.000
44.151	0.000
44.154	0.000
44.157	0.000
44.161	0.000
44.164	0.000
44.167	0.000
44.170	0.000
44.173	0.000
44.177	0.000
44.180	0.000
44.183	0.000
44.186	0.000
44.189	0.000
44.193	0.000
44.196	0.000
44.199	0.000
44.202	0.000
44.205	0.000
44.209	0.000
44.212	0.000
44.215	0.000
44.218	0.000
44.222	0.000
44.225	0.000
44.228	0.000
44.231	0.000
44.234	0.000
44.238	0.000
44.241	0.000
44.244	0.000
44.247	0.000
44.250	0.000
44.254	0.000
44.257	0.000
44.260	0.000
44.263	0.000
44.266	0.000
44.270	0.000
44.273	0.000
44.276	0.000
44.279	0.000
44.283	0.000
44.286	0.000
44.289	0.000
44.292	0.000
44.295	0.000
44.299	0.000
44.302	0.000
44.305	0.000
44.308	0.000
44.311	0.000
44.315	0.000
44.318	0.000
44.321	0.000
44.324	0.000
44.327	0.000
44.331	0.000
44.334	0.000
44.337	0.000
44.340	0.000
44.344	0.000
44.347	0.000
44.350	0.000
44.353	0.000
44.356	0.000
44.360	0.000
44.363	0.000
44.366	0.000
44.369	0.000
44.372	0.000
44.376	0.000
44.379	0.000
44.382	0.000
44.385	0.000
44.389	0.000
44.392	0.000
44.395	0.000
44.398	0.000
44.401	0.000
44.405	0.000
44.408	0.000
44.411	0.000
44.414	0.000
44.417	0.000
44.421	0.000
44.424	0.000
44.427	0.000
44.430	0.000
44.433	0.000
44.437	0.000
44.440	0.000
44.443	0.000
44.446	0.000
44.450	0.000
44.453	0.000
44.456	0.000
44.459	0.000
44.462	0.000
44.466	0.000
44.469	0.000
44.472	0.000
44.475	0.000
44.478	0.000
44.482	0.000
44.485	0.000
44.488	0.000
44.491	0.000
44.494	0.000
44.498	0.000
44.501	0.000
44.504	0.000
44.507	0.000
44.511	0.000
44.514	0.000
44.517	0.000
44.520	0.000
44.523	0.000
44.527	0.000
44.530	0.000
44.533	0.000
44.536	0.000
44.539	0.000
44.543	0.000
44.546	0.000
44.549	0.000
44.552	0.000
44.555	0.000
44.559	0.000
44.562	0.000
44.565	0.000
44.568	0.000
44.572	0.000
44.575	0.000
44.578	0.000
44.581	0.000
44.584	0.000
44.588	0.000
44.591	0.000
44.594	0.000
44.597	0.000
44.600	0.000
44.604	0.000
44.607	0.000
44.610	0.000
44.613	0.000
44.616	0.000
44.620	0.000
44.623	0.000
44.626	0.000
44.629	0.000
44.633	0.000
44.636	0.000
44.639	0.000
44.642	0.000
44.645	0.000
44.649	0.000
44.652	0.000
44.655	0.000
44.658	0.000
44.661	0.000
44.665	0.000
44.668	0.000
44.671	0.000
44.674	0.000
44.677	0.000
44.681	0.000
44.684	0.000
44.687	0.000
44.690	0.000
44.694	0.000
44.697	0.000
44.700	0.000
44.703	0.000
44.706	0.000
44.710	0.000
44.713	0.000
44.716	0.000
44.719	0.000
44.722	0.000
44.726	0.000
44.729	0.000
44.732	0.000
44.735	0.000
44.739	0.000
44.742	0.000
44.745	0.000
44.748	0.000
44.751	0.000
44.755	0.000
44.758	0.000
44.761	0.000
44.764	0.000
44.767	0.000
44.771	0.000
44.774	0.000
44.777	0.000
44.780	0.000
44.783	0.000
44.787	0.000
44.790	0.000
44.793	0.000
44.796	0.000
44.800	0.000
44.803	0.000
44.806	0.000
44.809	0.000
44.812	0.000
44.816	0.000
44.819	0.000
44.822	0.000
44.825	0.000
44.828	0.000
44.832	0.000
44.835	0.000
44.838	0.000
44.841	0.000
44.844	0.000
44.848	0.000
44.851	0.000
44.854	0.000
44.857	0.000
44.861	0.000
44.864	0.000
44.867	0.000
44.870	0.000
44.873	0.000
44.877	0.000
44.880	0.000
44.883	0.000
44.886	0.000
44.889	0.000
44.893	0.000
44.896	0.000
44.899	0.000
44.902	0.000
44.905	0.000
44.909	0.000
44.912	0.000
44.915	0.000
44.918	0.000
44.922	0.000
44.925	0.000
44.928	0.000
44.931	0.000
44.934	0.000
44.938	0.000
44.941	0.000
44.944	0.000
44.947	0.000
44.950	0.000
44.954	0.000
44.957	0.000
44.960	0.000
44.963	0.000
44.966	0.000
44.970	0.000
44.973	0.000
44.976	0.000
44.979	0.000
44.983	0.000
44.986	0.000
44.989	0.000
44.992	0.000
44.995	0.000
44.999	0.000
45.002	0.000
45.005	0.000
45.008	0.000
45.011	0.000
45.015	0.000
45.018	0.000
45.021	0.000
45.024	0.000
45.027	0.000
45.031	0.000
45.034	0.000
45.037	0.000
45.040	0.000
45.044	0.000
45.047	0.000
45.050	0.000
45.053	0.000
45.056	0.000
45.060	0.000
45.063	0.000
45.066	0.000
45.069	0.000
45.072	0.000
45.076	0.000
45.079	0.000
45.082	0.000
45.085	0.000
45.089	0.000
45.092	0.000
45.095	0.000
45.098	0.000
45.101	0.000
45.105	0.000
45.108	0.000
45.111	0.000
45.114	0.000
45.117	0.000
45.121	0.000
45.124	0.000
45.127	0.000
45.130	0.000
45.133	0.000
45.137	0.000
45.140	0.000
45.143	0.000
45.146	0.000
45.150	0.000
45.153	0.000
45.156	0.000
45.159	0.000
45.162	0.000
45.166	0.000
45.169	0.000
45.172	0.000
45.175	0.000
45.178	0.000
45.182	0.000
45.185	0.000
45.188	0.000
45.191	0.000
45.194	0.000
45.198	0.000
45.201	0.000
45.204	0.000
45.207	0.000
45.211	0.000
45.214	0.000
45.217	0.000
45.220	0.000
45.223	0.000
45.227	0.000
45.230	0.000
45.233	0.000
45.236	0.000
45.239	0.000
45.243	0.000
45.246	0.000
45.249	0.000
45.252	0.000
45.255	0.000
45.259	0.000
45.262	0.000
45.265	0.000
45.268	0.000
45.272	0.000
45.275	0.000
45.278	0.000
45.281	0.000
45.284	0.000
45.288	0.000
45.291	0.000
45.294	0.000
45.297	0.000
45.300	0.000
45.304	0.000
45.307	0.000
45.310	0.000
45.313	0.000
45.316	0.000
45.320	0.000
45.323	0.000
45.326	0.000
45.329	0.000
45.333	0.000
45.336	0.000
45.339	0.000
45.342	0.000
45.345	0.000
45.349	0.000
45.352	0.000
45.355	0.000
45.358	0.000
45.361	0.000
45.365	0.000
45.368	0.000
45.371	0.000
45.374	0.000
45.377	0.000
45.381	0.000
45.384	0.000
45.387	0.000
45.390	0.000
45.394	0.000
45.397	0.000
45.400	0.000
45.403	0.000
45.406	0.000
45.410	0.000
45.413	0.000
45.416	0.000
45.419	0.000
45.422	0.000
45.426	0.000
45.429	0.000
45.432	0.000
45.435	0.000
45.439	0.000
45.442	0.000
45.445	0.000
45.448	0.000
45.451	0.000
45.455	0.000
45.458	0.000
45.461	0.000
45.464	0.000
45.467	0.000
45.471	0.000
45.474	0.000
45.477	0.000
45.480	0.000
45.483	0.000
45.487	0.000
45.490	0.000
45.493	0.000
45.496	0.000
45.500	0.000
45.503	0.000
45.506	0.000
45.509	0.000
45.512	0.000
45.516	0.000
45.519	0.000
45.522	0.000
45.525	0.000
45.528	0.000
45.532	0.000
45.535	0.000
45.538	0.000
45.541	0.000
45.544	0.000
45.548	0.000
45.551	0.000
45.554	0.000
45.557	0.000
45.561	0.000
45.564	0.000
45.567	0.000
45.570	0.000
45.573	0.000
45.577	0.000
45.580	0.000
45.583	0.000
45.586	0.000
45.589	0.000
45.593	0.000
45.596	0.000
45.599	0.000
45.602	0.000
45.605	0.000
45.609	0.000
45.612	0.000
45.615	0.000
45.618	0.000
45.622	0.000
45.625	0.000
45.628	0.000
45.631	0.000
45.634	0.000
45.638	0.000
45.641	0.000
45.644	0.000
45.647	0.000
45.650	0.000
45.654	0.000
45.657	0.000
45.660	0.000
45.663	0.000
45.666	0.000
45.670	0.000
45.673	0.000
45.676	0.000
45.679	0.000
45.683	0.000
45.686	0.000
45.689	0.000
45.692	0.000
45.695	0.000
45.699	0.000
45.702	0.000
45.705	0.000
45.708	0.000
45.711	0.000
45.715	0.000
45.718	0.000
45.721	0.000
45.724	0.000
45.727	0.000
45.731	0.000
45.734	0.000
45.737	0.000
45.740	0.000
45.744	0.000
45.747	0.000
45.750	0.000
45.753	0.000
45.756	0.000
45.760	0.000
45.763	0.000
45.766	0.000
45.769	0.000
45.772	0.000
45.776	0.000
45.779	0.000
45.782	0.000
45.785	0.000
45.789	0.000
45.792	0.000
45.795	0.000
45.798	0.000
45.801	0.000
45.805	0.000
45.808	0.000
45.811	0.000
45.814	0.000
45.817	0.000
45.821	0.000
45.824	0.000
45.827	0.000
45.830	0.000
45.833	0.000
45.837	0.000
45.840	0.000
45.843	0.000
45.846	0.000
45.850	0.000
45.853	0.000
45.856	0.000
45.859	0.000
45.862	0.000
45.866	0.000
45.869	0.000
45.872	0.000
45.875	0.000
45.878	0.000
45.882	0.000
45.885	0.000
45.888	0.000
45.891	0.000
45.894	0.000
45.898	0.000
45.901	0.000
45.904	0.000
45.907	0.000
45.911	0.000
45.914	0.000
45.917	0.000
45.920	0.000
45.923	0.000
45.927	0.000
45.930	0.000
45.933	0.000
45.936	0.000
45.939	0.000
45.943	0.000
45.946	0.000
45.949	0.000
45.952	0.000
45.955	0.000
45.959	0.000
45.962	0.000
45.965	0.000
45.968	0.000
45.972	0.000
45.975	0.000
45.978	0.000
45.981	0.000
45.984	0.000
45.988	0.000
45.991	0.000
45.994	0.000
45.997	0.000
46.000	0.000
46.004	0.000
46.007	0.000
46.010	0.000
46.013	0.000
46.016	0.000
46.020	0.000
46.023	0.000
46.026	0.000
46.029	0.000
46.033	0.000
46.036	0.000
46.039	0.000
46.042	0.000
46.045	0.000
46.049	0.000
46.052	0.000
46.055	0.000
46.058	0.000
46.061	0.000
46.065	0.000
46.068	0.000
46.071	0.000
46.074	0.000
46.077	0.000
46.081	0.000
46.084	0.000
46.087	0.000
46.090	0.000
46.094	0.000
46.097	0.000
46.100	0.000
46.103	0.000
46.106	0.000
46.110	0.000
46.113	0.000
46.116	0.000
46.119	0.000
46.122	0.000
46.126	0.000
46.129	0.000
46.132	0.000
46.135	0.000
46.139	0.000
46.142	0.000
46.145	0.000
46.148	0.000
46.151	0.000
46.155	0.000
46.158	0.000
46.161	0.000
46.164	0.000
46.167	0.000
46.171	0.000
46.174	0.000
46.177	0.000
46.180	0.000
46.183	0.000
46.187	0.000
46.190	0.000
46.193	0.000
46.196	0.000
46.200	0.000
46.203	0.000
46.206	0.000
46.209	0.000
46.212	0.000
46.216	0.000
46.219	0.000
46.222	0.000
46.225	0.000
46.228	0.000
46.232	0.000
46.235	0.000
46.238	0.000
46.241	0.000
46.244	0.000
46.248	0.000
46.251	0.000
46.254	0.000
46.257	0.000
46.261	0.000
46.264	0.000
46.267	0.000
46.270	0.000
46.273	0.000
46.277	0.000
46.280	0.000
46.283	0.000
46.286	0.000
46.289	0.000
46.293	0.000
46.296	0.000
46.299	0.000
46.302	0.000
46.305	0.000
46.309	0.000
46.312	0.000
46.315	0.000
46.318	0.000
46.322	0.000
46.325	0.000
46.328	0.000
46.331	0.000
46.334	0.000
46.338	0.000
46.341	0.000
46.344	0.000
46.347	0.000
46.350	0.000
46.354	0.000
46.357	0.000
46.360	0.000
46.363	0.000
46.366	0.000
46.370	0.000
46.373	0.000
46.376	0.000
46.379	0.000
46.383	0.000
46.386	0.000
46.389	0.000
46.392	0.000
46.395	0.000
46.399	0.000
46.402	0.000
46.405	0.000
46.408	0.000
46.411	0.000
46.415	0.000
46.418	0.000
46.421	0.000
46.424	0.000
46.427	0.000
46.431	0.000
46.434	0.000
46.437	0.000
46.440	0.000
46.444	0.000
46.447	0.000
46.450	0.000
46.453	0.000
46.456	0.000
46.460	0.000
46.463	0.000
46.466	0.000
46.469	0.000
46.472	0.000
46.476	0.000
46.479	0.000
46.482	0.000
46.485	0.000
46.489	0.000
46.492	0.000
46.495	0.000
46.498	0.000
46.501	0.000
46.505	0.000
46.508	0.000
46.511	0.000
46.514	0.000
46.517	0.000
46.521	0.000
46.524	0.000
46.527	0.000
46.530	0.000
46.533	0.000
46.537	0.000
46.540	0.000
46.543	0.000
46.546	0.000
46.550	0.000
46.553	0.000
46.556	0.000
46.559	0.000
46.562	0.000
46.566	0.000
46.569	0.000
46.572	0.000
46.575	0.000
46.578	0.000
46.582	0.000
46.585	0.000
46.588	0.000
46.591	0.000
46.594	0.000
46.598	0.000
46.601	0.000
46.604	0.000
46.607	0.000
46.611	0.000
46.614	0.000
46.617	0.000
46.620	0.000
46.623	0.000
46.627	0.000
46.630	0.000
46.633	0.000
46.636	0.000
46.639	0.000
46.643	0.000
46.646	0.000
46.649	0.000
46.652	0.000
46.655	0.000
46.659	0.000
46.662	0.000
46.665	0.000
46.668	0.000
46.672	0.000
46.675	0.000
46.678	0.000
46.681	0.000
46.684	0.000
46.688	0.000
46.691	0.000
46.694	0.000
46.697	0.000
46.700	0.000
46.704	0.000
46.707	0.000
46.710	0.000
46.713	0.000
46.716	0.000
46.720	0.000
46.723	0.000
46.726	0.000
46.729	0.000
46.733	0.000
46.736	0.000
46.739	0.000
46.742	0.000
46.745	0.000
46.749	0.000
46.752	0.000
46.755	0.000
46.758	0.000
46.761	0.000
46.765	0.000
46.768	0.000
46.771	0.000
46.774	0.000
46.777	0.000
46.781	0.000
46.784	0.000
46.787	0.000
46.790	0.000
46.794	0.000
46.797	0.000
46.800	0.000
46.803	0.000
46.806	0.000
46.810	0.000
46.813	0.000
46.816	0.000
46.819	0.000
46.822	0.000
46.826	0.000
46.829	0.000
46.832	0.000
46.835	0.000
46.838	0.000
46.842	0.000
46.845	0.000
46.848	0.000
46.851	0.000
46.855	0.000
46.858	0.000
46.861	0.000
46.864	0.000
46.867	0.000
46.871	0.000
46.874	0.000
46.877	0.000
46.880	0.000
46.883	0.000
46.887	0.000
46.890	0.000
46.893	0.000
46.896	0.000
46.900	0.000
46.903	0.000
46.906	0.000
46.909	0.000
46.912	0.000
46.916	0.000
46.919	0.000
46.922	0.000
46.925	0.000
46.928	0.000
46.932	0.000
46.935	0.000
46.938	0.000
46.941	0.000
46.944	0.000
46.948	0.000
46.951	0.000
46.954	0.000
46.957	0.000
46.961	0.000
46.964	0.000
46.967	0.000
46.970	0.000
46.973	0.000
46.977	0.000
46.980	0.000
46.983	0.000
46.986	0.000
46.989	0.000
46.993	0.000
46.996	0.000
46.999	0.000
47.002	0.000
47.005	0.000
47.009	0.000
47.012	0.000
47.015	0.000
47.018	0.000
47.022	0.000
47.025	0.000
47.028	0.000
47.031	0.000
47.034	0.000
47.038	0.000
47.041	0.000
47.044	0.000
47.047	0.000
47.050	0.000
47.054	0.000
47.057	0.000
47.060	0.000
47.063	0.000
47.066	0.000
47.070	0.000
47.073	0.000
47.076	0.000
47.079	0.000
47.083	0.000
47.086	0.000
47.089	0.000
47.092	0.000
47.095	0.000
47.099	0.000
47.102	0.000
47.105	0.000
47.108	0.000
47.111	0.000
47.115	0.000
47.118	0.000
47.121	0.000
47.124	0.000
47.127	0.000
47.131	0.000
47.134	0.000
47.137	0.000
47.140	0.000
47.144	0.000
47.147	0.000
47.150	0.000
47.153	0.000
47.156	0.000
47.160	0.000
47.163	0.000
47.166	0.000
47.169	0.000
47.172	0.000
47.176	0.000
47.179	0.000
47.182	0.000
47.185	0.000
47.188	0.000
47.192	0.000
47.195	0.000
47.198	0.000
47.201	0.000
47.205	0.000
47.208	0.000
47.211	0.000
47.214	0.000
47.217	0.000
47.221	0.000
47.224	0.000
47.227	0.000
47.230	0.000
47.233	0.000
47.237	0.000
47.240	0.000
47.243	0.000
47.246	0.000
47.250	0.000
47.253	0.000
47.256	0.000
47.259	0.000
47.262	0.000
47.266	0.000
47.269	0.000
47.272	0.000
47.275	0.000
47.278	0.000
47.282	0.000
47.285	0.000
47.288	0.000
47.291	0.000
47.294	0.000
47.298	0.000
47.301	0.000
47.304	0.000
47.307	0.000
47.311	0.000
47.314	0.000
47.317	0.000
47.320	0.000
47.323	0.000
47.327	0.000
47.330	0.000
47.333	0.000
47.336	0.000
47.339	0.000
47.343	0.000
47.346	0.000
47.349	0.000
47.352	0.000
47.355	0.000
47.359	0.000
47.362	0.000
47.365	0.000
47.368	0.000
47.372	0.000
47.375	0.000
47.378	0.000
47.381	0.000
47.384	0.000
47.388	0.000
47.391	0.000
47.394	0.000
47.397	0.000
47.400	0.000
47.404	0.000
47.407	0.000
47.410	0.000
47.413	0.000
47.416	0.000
47.420	0.000
47.423	0.000
47.426	0.000
47.429	0.000
47.433	0.000
47.436	0.000
47.439	0.000
47.442	0.000
47.445	0.000
47.449	0.000
47.452	0.000
47.455	0.000
47.458	0.000
47.461	0.000
47.465	0.000
47.468	0.000
47.471	0.000
47.474	0.000
47.477	0.000
47.481	0.000
47.484	0.000
47.487	0.000
47.490	0.000
47.494	0.000
47.497	0.000
47.500	0.000
47.503	0.000
47.506	0.000
47.510	0.000
47.513	0.000
47.516	0.000
47.519	0.000
47.522	0.000
47.526	0.000
47.529	0.000
47.532	0.000
47.535	0.000
47.538	0.000
47.542	0.000
47.545	0.000
47.548	0.000
47.551	0.000
47.555	0.000
47.558	0.000
47.561	0.000
47.564	0.000
47.567	0.000
47.571	0.000
47.574	0.000
47.577	0.000
47.580	0.000
47.583	0.000
47.587	0.000
47.590	0.000
47.593	0.000
47.596	0.000
47.600	0.000
47.603	0.000
47.606	0.000
47.609	0.000
47.612	0.000
47.616	0.000
47.619	0.000
47.622	0.000
47.625	0.000
47.628	0.000
47.632	0.000
47.635	0.000
47.638	0.000
47.641	0.000
47.644	0.000
47.648	0.000
47.651	0.000
47.654	0.000
47.657	0.000
47.661	0.000
47.664	0.000
47.667	0.000
47.670	0.000
47.673	0.000
47.677	0.000
47.680	0.000
47.683	0.000
47.686	0.000
47.689	0.000
47.693	0.000
47.696	0.000
47.699	0.000
47.702	0.000
47.705	0.000
47.709	0.000
47.712	0.000
47.715	0.000
47.718	0.000
47.722	0.000
47.725	0.000
47.728	0.000
47.731	0.000
47.734	0.000
47.738	0.000
47.741	0.000
47.744	0.000
47.747	0.000
47.750	0.000
47.754	0.000
47.757	0.000
47.760	0.000
47.763	0.000
47.766	0.000
47.770	0.000
47.773	0.000
47.776	0.000
47.779	0.000
47.783	0.000
47.786	0.000
47.789	0.000
47.792	0.000
47.795	0.000
47.799	0.000
47.802	0.000
47.805	0.000
47.808	0.000
47.811	0.000
47.815	0.000
47.818	0.000
47.821	0.000
47.824	0.000
47.827	0.000
47.831	0.000
47.834	0.000
47.837	0.000
47.840	0.000
47.844	0.000
47.847	0.000
47.850	0.000
47.853	0.000
47.856	0.000
47.860	0.000
47.863	0.000
47.866	0.000
47.869	0.000
47.872	0.000
47.876	0.000
47.879	0.000
47.882	0.000
47.885	0.000
47.888	0.000
47.892	0.000
47.895	0.000
47.898	0.000
47.901	0.000
47.905	0.000
47.908	0.000
47.911	0.000
47.914	0.000
47.917	0.000
47.921	0.000
47.924	0.000
47.927	0.000
47.930	0.000
47.933	0.000
47.937	0.000
47.940	0.000
47.943	0.000
47.946	0.000
47.950	0.000
47.953	0.000
47.956	0.000
47.959	0.000
47.962	0.000
47.966	0.000
47.969	0.000
47.972	0.000
47.975	0.000
47.978	0.000
47.982	0.000
47.985	0.000
47.988	0.000
47.991	0.000
47.994	0.000
47.998	0.000
48.001	0.000
48.004	0.000
48.007	0.000
48.011	0.000
48.014	0.000
48.017	0.000
48.020	0.000
48.023	0.000
48.027	0.000
